! Center RA: 04 18 21.28000,  Dec: +38 01 35.76000 (2000.0)
! Tentative model.
! Flux (Jy) Radius (mas)  Theta (deg)  Major FWHM (mas)  Axial ratio   Phi (deg) T \
! Freq (Hz)     SpecIndex
0.00233136     0.447214      63.4349 
0.00146614     0.466476      59.0362 
-0.000944564      1.79778      69.1455 
-0.000489412      1.74631      69.9048 
-0.000577136      2.02781      75.1414 
0.000634024     0.501199      61.3895 
-8.84935e-05      1.78393      70.3462 
0.000472308      1.56461      57.5288 
8.31421e-05     0.164924     -14.0362 
-0.000539189      1.94031      75.6773 
0.000740176     0.126491     -18.4349 
-0.000348176      8.03482      57.8132 
0.000341187     0.417612      16.6992 
-0.000322818      3.17918      68.6002 
-0.000300833      7.99880      59.3311 
0.00153539      1.54350      58.7816 
-0.000310631      3.22614      70.4417 
0.00159125      2.04000      61.9275 
-0.000583116      1.76045      68.6821 
-0.000969646      5.00640      67.9436 
-0.000880543      9.27793      60.5615 
-0.000306092      3.14197      68.3340 
0.00120720      7.43720      66.8823 
-0.000463138      2.06649      75.4258 
-0.000493814      8.05620      57.5724 
-0.000447258      8.03323      59.4766 
0.000320822     0.456070      15.2551 
-0.000606677      1.58493      79.8245 
-0.000193078      8.87856      57.8852 
0.000556497      5.39881      59.2547 
-0.000357144      2.72000      61.9275 
0.000239496      1.59850      58.2986 
0.000239134     0.400000      36.8699 
-0.000403551      4.95435      68.1986 
0.000300782      4.94401      53.2228 
-0.000335860      3.23975      69.7751 
-6.60841e-05      1.83521      69.5901 
0.000155387     0.113137     -45.0000 
-0.000135819      2.79428      66.3706 
-0.000475520      8.82342      57.9671 
-2.14114e-05      8.45894      58.3392 
0.000358253      4.97610      53.4986 
-0.000169929      1.11140      59.7436 
-0.000230167      8.51399      58.2514 
-0.000423350      9.10428      59.9429 
-0.000378387      5.61840      58.6865 
-0.000291513      3.15696      67.6594 
0.000489811      4.49444      57.7244 
0.000291753      4.93737      63.0198 
9.46343e-05      5.41937      58.8912 
0.000144081    0.0894427     -63.4349 
-5.52361e-05      1.85946      71.1753 
-0.000223011      8.55748      65.7112 
0.000459137      8.92654      63.0905 
0.000173820      4.06054      55.8403 
0.000361874     0.447214      10.3048 
-0.000303065      1.13208      57.9946 
0.000119134      4.11825      60.9454 
0.000396144      1.44499      48.3665 
-0.000101729      8.06771      59.6209 
0.000279476      7.35358      64.5501 
-1.80056e-05      2.68477      61.5258 
-0.000244605      7.81547      67.1094 
0.000192966     0.256125      141.340 
0.000231806      4.09898      61.4342 
-0.000325991      1.72325      68.1986 
8.97880e-05      4.90175      62.8076 
-6.61936e-05      7.80000      67.3801 
0.000470547      5.42719      57.9499 
-0.000338671      5.17100      55.0806 
-6.16929e-05      2.84703      65.9558 
-0.000370700      5.23893      69.9048 
0.000605453      8.55299      62.1167 
-0.000137007      1.87275      70.0169 
-0.000111406      8.32250      61.5873 
0.000299599      3.52091      68.6821 
-0.000236758      8.54110      65.9558 
-0.000445351      3.47816      59.6013 
1.50573e-05      3.88515      61.0600 
-0.000579525      4.36715      61.5571 
-6.99915e-05      8.53510      58.0231 
0.000528496      3.86595      61.5788 
-2.84738e-05      7.94592      61.7578 
-0.000133179      2.73905      61.1892 
-0.000430329      5.63929      58.3392 
7.17415e-05     0.200000     -126.870 
-5.97244e-05      3.15087      56.9151 
-0.000184661      3.09555      64.7595 
-0.000117412      2.42981      57.0948 
-0.000142608      8.21004      56.9293 
-0.000183002      1.09836      56.8887 
-0.000185591      7.89177      61.8763 
-0.000140995      2.86356      65.2249 
-5.08869e-05      7.81025      66.4546 
-0.000278804      3.90876      72.1213 
0.000362067      3.24493      59.6419 
-0.000291197      1.54557      79.5625 
0.000354027      2.70496      51.6048 
-3.92384e-05      7.78470      67.6519 
-0.000399884      5.14820      55.4456 
-2.58331e-05      9.09927      60.5050 
-0.000105947      4.53008      60.9454 
6.15904e-05      4.06546      66.2092 
0.000204470      7.51532      62.0710 
0.000214403      4.91935      63.4349 
-0.000124659      8.37673      61.4769 
-0.000245635     0.721110      70.5600 
-0.000186387      8.48000      58.1092 
-0.000322873      4.56509      61.1892 
-7.04840e-05      7.76958      67.9247 
0.000147946      4.89326      57.3492 
-0.000196856      9.08432      60.1612 
0.000136620     0.226274      135.000 
7.47633e-05      5.17131      64.8225 
-7.08475e-05      2.48516      56.8215 
0.000101901      8.21550      67.6806 
0.000234940      5.41302      59.8350 
0.000226880     0.521536      57.5288 
-7.33446e-05      1.87489      56.3099 
-3.49395e-05      7.83112      66.8398 
-0.000193919      3.35738      74.8048 
-2.32684e-05      3.19399      67.9321 
0.000143603      4.99680      70.8398 
0.000110108      3.57279      68.3177 
0.000101550      4.04949      66.7271 
-0.000339576      2.56281      55.8139 
-0.000100477      1.93039      55.9807 
-0.000170850      1.21655      46.3322 
-0.000159479      7.84694      66.5713 
-0.000147750      7.75464      68.1986 
0.000108084      4.19237      60.2551 
-8.97802e-05      1.73851      66.9745 
-3.95194e-05      2.29539      67.4569 
-0.000106164      8.26772      54.8490 
0.000135338      2.80000      53.1301 
9.52644e-05      4.38634      65.7723 
0.000125376      8.16333      67.8337 
-8.73165e-05      4.96935      67.7704 
-1.02693e-05      7.92374      59.6811 
-0.000104811      7.67437      63.0343 
0.000103285      7.38474      67.0459 
-4.75543e-05      1.07703      58.6713 
0.000121806      8.53135      56.0864 
-7.46297e-05      2.93394      64.1336 
-8.36565e-05      3.66431      53.8807 
3.85416e-05      8.60707      62.0058 
-6.44797e-05     0.708802      73.6105 
1.85346e-05     0.395980      45.0000 
9.52376e-06     0.226274     -135.000 
-2.75606e-05      4.68683      63.6536 
3.66402e-05      8.87279      63.2039 
4.56572e-05      2.02148      62.9279 
6.35591e-05      8.62591      61.7712 
-2.75733e-05      5.15566      61.2476 
9.35197e-06      4.08000      61.9275 
-2.71295e-05      2.70407      60.7808 
-2.72805e-05      7.87299      62.1330 
1.80730e-05      8.57177      61.8803 
-5.41691e-05      5.40281      62.6761 
-9.23228e-06      7.86903      59.7855 
3.58808e-05     0.877268      46.8476 
-2.70367e-05      5.17177      61.8493 
-1.80989e-05     0.883629      84.8056 
-1.78725e-05      1.89737      55.3048 
-2.68775e-05      1.38852      41.4965 
-2.68177e-05      3.92122      71.5651 
-1.78426e-05      8.15814      62.5555 
9.00509e-06      7.37086      64.2693 
8.98559e-06      3.00852      54.1967 
-1.76906e-05      3.14884      64.4115 
8.82816e-06      4.00500      55.9925 
-8.81562e-06     0.902441      77.1957 
8.77534e-06      2.07538      62.4472 
