! Center RA: 11 04 27.31394,  Dec: +38 12 31.79895 (2000.0)
! Tentative model.
! Flux (Jy) Radius (mas)  Theta (deg)  Major FWHM (mas)  Axial ratio   Phi (deg) T \
! Freq (Hz)     SpecIndex
  0.197868      0.00000      0.00000 
0.00830569    0.0200000      90.0000 
0.00331536    0.0282843     -45.0000 
0.00165816    0.0447214      116.565 
0.00151414    0.0565685      135.000 
0.00280803    0.0565685     -45.0000 
0.00390843    0.0721110      123.690 
0.00324995    0.0721110     -56.3099 
0.00960806    0.0894427      116.565 
0.00395050    0.0848528     -45.0000 
0.00320919    0.0894427     -63.4349 
0.00181078     0.100000     -53.1301 
0.00199784     0.379473     -18.4349 
0.00555298     0.101980      101.310 
0.00210048    0.0824621     -75.9638 
0.000434273     0.161245      172.875 
0.00148508     0.398497     -17.5256 
0.00113012     0.504777     -33.6901 
0.00107794     0.180000     -180.000 
0.000994753     0.200998      5.71059 
0.000661967     0.392938     -14.7436 
0.000928349     0.516140     -35.5377 
0.000783597     0.412311     -14.0362 
0.000291117     0.181108      173.660 
0.00229298     0.532541     -34.2869 
0.000726030     0.200000     -180.000 
0.000244640    0.0800000     -90.0000 
0.000242350     0.664831     -46.2189 
0.000930387     0.220907      5.19443 
0.00240516     0.679412     -47.3859 
0.00103121     0.101980     -78.6901 
0.000213463     0.393954     -23.9625 
0.000388077     0.200998      174.289 
0.000376963     0.407922     -11.3099 
0.000790217     0.220907      174.806 
0.000542478     0.402492     -26.5651 
0.000159063     0.404475     -8.53077 
0.000155434     0.220000     -180.000 
0.00138939      1.12606     -33.4078 
0.000950110      1.11803     -42.8253 
0.00176945      1.57201     -36.7241 
0.000252332     0.678822     -45.0000 
0.00100381     0.424264     -8.13010 
0.000641942      1.03788     -25.0836 
0.00124204     0.100000     -90.0000 
0.00105426     0.223607      10.3048 
0.000215231      1.01980     -25.5600 
0.000670799     0.917606     -16.4600 
0.000203958     0.905539     -30.5297 
0.000409196     0.240832      175.236 
0.000785773      1.65711     -29.6591 
0.000409715     0.420476     -25.3462 
0.000164578     0.544059     -36.0274 
0.000629457      1.14630     -42.8789 
0.000572020      1.68582     -41.6335 
0.000221715     0.429418     -27.7585 
0.000187166      1.43736     -21.2092 
0.000407732     0.466905     -46.7357 
0.000287739     0.693397     -33.2317 
0.000270619      1.06621     -23.1986 
0.000231007     0.906863     -41.4237 
0.000120942     0.263059      171.254 
0.000205001      1.05603     -24.6236 
0.000418398      1.22442     -51.6325 
0.000341096      1.44471     -21.9487 
0.000391059     0.286356      167.905 
0.000141418     0.640312     -14.4703 
0.000161895      1.67093     -42.0892 
0.000142572     0.121655      99.4623 
-0.000399435      1.15412     -8.97263 
0.000465269     0.100000      90.0000 
7.51160e-05     0.220907     -174.806 
0.000173962     0.936803     -16.1134 
0.000573643    0.0894427     -116.565 
0.000128582      1.22801      6.54629 
-0.000385502     0.196977     -113.962 
0.000330197    0.0824621     -104.036 
3.25477e-05     0.620967     -14.9314 
6.31500e-05     0.291204      164.055 
3.12407e-05      1.75602     -37.1309 
3.04142e-05     0.456070     -52.1250 
-5.99276e-05     0.212603      48.8141 
