! Center RA: 22 32 36.40891,  Dec: +11 43 50.90394 (2000.0)
! Established model.
! Flux (Jy) Radius (mas)  Theta (deg)  Major FWHM (mas)  Axial ratio   Phi (deg) T \
! Freq (Hz)     SpecIndex
  0.786644      0.00000      0.00000 
  0.216056    0.0282843     -45.0000 
 0.0290492     0.128062      128.660 
 0.0667726     0.144222      123.690 
 0.0409712    0.0200000     -90.0000 
0.00532459    0.0447214     -63.4349 
 0.0391285     0.161245      119.745 
 0.0992332    0.0400000     -90.0000 
 0.0610949     0.152315      113.199 
 0.0210399     0.170880      110.556 
 0.0770265    0.0447214     -116.565 
 0.0474898     0.164924      104.036 
0.00590045     0.145602      105.945 
0.00181516    0.0824621      165.964 
0.00349274     0.208806      106.699 
0.00652467     0.100000      143.130 
0.00658070     0.228035      105.255 
 0.0152010    0.0600000     -90.0000 
 0.0124685     0.107703      158.199 
 0.0113707     0.252982      108.435 
0.00151788     0.116619      120.964 
0.00889193     0.126491      108.435 
 0.0164103     0.286356      114.775 
 0.0169359    0.0894427     -63.4349 
 0.0237914     0.141421      98.1301 
0.00612582     0.126491      161.565 
 0.0185418     0.313050      116.565 
 0.0128802     0.100000     -53.1301 
0.00684789     0.322490      119.745 
0.00776344     0.121655      170.538 
 0.0140678     0.943398      122.005 
0.00112649     0.141421     -45.0000 
0.00609022     0.926499      122.661 
0.00715557     0.121655      99.4623 
0.00390323     0.156205     -39.8056 
0.000852891     0.120000      180.000 
0.00126279     0.172047     -35.5377 
0.00268179    0.0721110     -123.690 
0.00117228     0.233238     -30.9638 
0.00185053     0.141421      171.870 
0.00111029      1.01213      119.604 
0.00274850     0.250599     -28.6105 
0.000999255      1.03942      120.018 
0.000349957     0.425206      138.814 
0.00130073    0.0848528     -135.000 
0.000338689     0.440454      140.528 
0.00669810     0.909725      123.341 
0.00359111      1.02956      119.055 
0.00177113    0.0800000     -90.0000 
0.000654075     0.304631      113.199 
0.00126472     0.456070      142.125 
0.00116543     0.297321      109.654 
0.000308137     0.268328     -26.5651 
0.00168276     0.295296     -28.3008 
0.00292572     0.472017      143.616 
0.00192063      1.67738      140.807 
0.00113123     0.266833      102.995 
0.000292053     0.882043      122.969 
0.00110238     0.765506      123.275 
0.000559106     0.893085      124.046 
0.00231796      1.74184      145.763 
0.00107284      1.44361      132.754 
0.00239983     0.291204      105.945 
0.00475707    0.0824621     -104.036 
0.00189915      1.04709      118.523 
0.00245774     0.760263      125.362 
0.00142067     0.313050     -26.5651 
0.00259176      1.43010      132.166 
0.00178843      1.80278      139.950 
0.000695130     0.145602      164.055 
0.00150685      1.69293      141.234 
0.00109648      1.68119      147.633 
0.00269869     0.488262      145.008 
0.000666479      1.75841      146.129 
0.000228686     0.322490     -29.7449 
0.000228619      1.19097      130.914 
0.00499168      1.41676      131.566 
0.00139930      1.17456      137.070 
0.00148296     0.161245      172.875 
0.00231566      2.18037      142.079 
0.000430065     0.609590      138.991 
0.000428263      1.20416      131.634 
0.00120809      1.03769      117.553 
0.000604398     0.449444      122.276 
0.00106362     0.286356      102.095 
0.00200648     0.340000     -28.0725 
0.000414550      2.25788      145.465 
0.00116186      1.68760      148.570 
0.00440385     0.637809      138.814 
0.000945699      1.21754      132.337 
0.00128365      1.88351      131.987 
0.000399396      1.77505      146.489 
0.000939828      2.26318      146.170 
0.00121746     0.263059      98.7462 
0.00186227      1.89694      132.436 
0.00199157      1.02859      116.565 
0.000185450      1.76963      145.592 
0.00141824     0.439090      120.069 
0.00204011     0.748866      124.114 
0.000182038      1.70857      141.654 
0.00370571      1.17593      138.447 
0.000637258      1.69446      149.500 
0.000179142      2.24116      147.019 
0.00143755      1.78617      145.954 
0.000482766     0.286356     -24.7751 
0.000491409      1.88521      131.129 
0.000881282      1.81571      139.467 
0.00110525      2.23034      147.450 
0.000170528      1.71919      150.751 
0.00132112      1.23110      133.025 
0.00250715      1.27624      147.804 
0.000652284      1.72708      151.654 
0.00331821      2.16148      141.009 
0.000465150      2.27982      146.449 
0.00292062     0.140000      90.0000 
0.000725551      1.74471      151.966 
0.000153697      1.23045      134.341 
0.000589273      1.87211      130.668 
0.00177147     0.181108      173.660 
0.00261590     0.511077      149.421 
0.00105124     0.282843      98.1301 
0.00118994     0.898888      122.276 
0.00174650    0.0894427     -116.565 
0.00364029      1.75317      152.850 
0.00118819      1.01980      115.560 
0.00194268      6.09108      153.267 
0.000412123      2.29652      146.725 
0.000523748      1.79176      146.842 
0.000394785      1.85914      130.200 
0.000850086      2.21964      147.885 
0.000850478     0.744312      120.700 
0.000915383      1.80278      146.310 
0.000254207     0.622896      137.603 
0.000243535     0.241661     -24.4440 
0.000369939      2.30755      146.310 
0.000124913      1.84629      129.726 
0.00245217      6.07635      155.291 
0.000456748      1.69009      140.281 
0.000227522     0.223607     -26.5651 
0.000340025      1.23240      131.711 
0.000353157      1.82428      127.875 
0.000346597     0.349857     -30.9638 
0.00140433      2.32422      146.583 
0.000119455      1.89589      133.290 
0.000523492     0.429418      117.759 
0.00129772      6.10894      153.351 
0.000347491      1.04652      116.075 
0.000117653      1.24451      135.000 
0.000553074      2.10761      133.847 
0.000338742     0.888369      121.185 
0.000838885      1.90966      133.727 
0.000743486     0.260768      94.3987 
0.000298031      1.67057      148.213 
0.000535013      1.03788      115.084 
0.000217224      1.24483      133.698 
0.000519855      1.81207      127.376 
0.000812315     0.734302      119.358 
0.000109133      1.80056      139.054 
0.000410282     0.885889      118.301 
0.000755453     0.367151     -29.3578 
0.000678759      2.22612      148.595 
0.000200457      1.78550      138.633 
0.000833141      2.17706      141.340 
0.000837696      2.12151      134.236 
0.00129068      1.15551      113.459 
0.00110309     0.425206      48.8141 
0.000195681      1.67475      139.844 
0.000735296      1.25873      135.644 
0.000289489      1.01134      114.538 
0.000370755      1.81945      146.659 
9.76818e-05      6.05818      155.212 
0.000628378      5.75142      152.900 
0.000277934     0.894427      116.565 
0.000360865      1.80854      147.189 
0.000360294      1.80000      126.870 
0.000184747      1.76918      137.291 
0.000441823     0.724707      117.979 
0.000349671      1.90924      134.576 
0.000178172      1.65952      139.399 
0.000262496     0.984886      113.962 
0.000172142      2.24321      148.861 
0.000171102      1.75454      136.848 
8.63803e-05     0.903770      114.864 
8.45776e-05      1.66517      155.898 
8.45101e-05      1.16276      139.185 
8.45021e-05      4.13575      129.309 
8.39807e-05     0.885664      115.408 
! Tentative model.
! Flux (Jy) Radius (mas)  Theta (deg)  Major FWHM (mas)  Axial ratio   Phi (deg) T \
! Freq (Hz)     SpecIndex
0.000560289      2.14149      145.271 
0.000534309      2.13663      144.525 
0.000178136      1.68297      135.481 
0.000515261      2.15796      145.574 
0.000341762      1.68297      134.519 
0.000968350     0.116619     -59.0362 
0.00135973      1.24451      135.000 
0.000171082      1.66973      133.059 
0.00168267     0.453431      138.576 
0.000640257      1.84196      131.479 
0.000593438      1.65759      138.424 
0.000474533      2.20907      148.325 
0.000310739      1.68345      133.556 
0.000455113      1.67093      132.089 
0.000156561      2.08969      140.826 
0.000299994     0.107703     -68.1986 
0.000150279      2.12424      142.267 
0.000724935      1.75841      146.129 
0.000557550     0.240000      90.0000 
0.000147727      1.17047      123.147 
0.000556833      2.21576      149.036 
0.000144964      1.82877      131.009 
0.000144368      2.14009      142.595 
0.000554057      1.15966      122.320 
0.000926979     0.744043      126.254 
0.000140135      2.13654      141.843 
0.000139325     0.128062     -51.3402 
0.000391795      1.65759      131.576 
0.000269768      1.23045      135.659 
0.000269955      1.81571      130.533 
0.000136898      2.17200      143.236 
0.000735310      1.65360      147.848 
0.000135145     0.141421     -45.0000 
0.000915320     0.468615      140.194 
0.000134836      1.69729      135.955 
0.000132272      2.15230      142.172 
0.000131575     0.113137     -135.000 
0.000499326      1.14909      121.477 
0.000646347      1.77505      146.489 
0.000253109     0.188680     -32.0054 
0.000128762      2.18806      143.549 
0.000705181      2.23294      149.300 
0.000240335      1.64657      130.073 
0.000246279     0.260768      85.6013 
0.000158480      1.16103      137.793 
0.000712312      1.65529      154.983 
0.000126057     0.128062     -141.340 
0.000244868      1.83096      130.126 
0.000243866      2.20418      143.858 
0.00208617      6.06660      155.040 
0.000782069     0.160000      90.0000 
0.000405388     0.144222     -146.310 
0.000259217      1.79176      146.842 
0.000121269      2.18403      142.815 
0.00129977      1.13278      137.862 
0.000345771     0.737835      122.829 
0.000118178      1.71172      136.420 
0.000229689     0.205913     -29.0546 
0.000311546      1.95243      136.660 
0.000537881     0.608276      136.332 
0.000749605      1.14612      119.249 
0.000224011      1.81813      129.644 
0.000114941      2.22036      144.162 
0.000479547     0.170880     -159.444 
0.000113095     0.282843      81.8699 
0.000219170      2.23660      144.462 
0.000327727      1.21672      154.699 
0.000365948      1.96703      137.060 
0.000407743      1.72627      136.878 
0.000292113     0.184391     -167.471 
0.000492430     0.161245      82.8750 
0.000317974     0.734302      119.358 
0.000109051      2.21603      143.440 
0.000421203      6.07322      153.182 
0.000204928      1.25873      134.356 
0.000107410      1.63377      129.536 
0.000107189     0.286356      77.9052 
0.000107236      1.64694      155.614 
0.000156747     0.521536      147.529 
0.000203216      1.80854      147.189 
0.000552512      1.93876      137.090 
0.000294088     0.223607     -26.5651 
0.000105420     0.420476      115.346 
0.000583681      2.22279      149.744 
0.000203640      1.80544      129.155 
0.00116486     0.620323      159.228 
0.000304675      2.25291      144.758 
0.000301753      1.67726      149.153 
0.000756521      1.23483      155.095 
0.000204324     0.323110      68.1986 
0.000298432      1.66517      155.898 
0.000794933     0.200998     -174.289 
0.000527092     0.288444     -56.3099 
0.000102215      1.64268      137.961 
0.000197674      1.62111      128.991 
0.000563619      6.10010      153.099 
0.000195962     0.724707      117.979 
9.80907e-05     0.331059      64.9831 
0.000343690     0.412311      112.834 
0.000188273      2.23213      143.746 
0.000190358      1.13649      118.369 
0.000386722     0.377359      57.9946 
0.000566283      1.59962      137.534 
0.00110635     0.622896      137.603 
0.000449269      5.76923      152.991 
0.00129361      6.16471      151.938 
0.000400436      2.26927      145.049 
0.000272883     0.724983      114.444 
0.000184839      1.79287      128.660 
0.000355774      1.70950      151.336 
0.000673586      1.73459      159.057 
0.000819408      6.08473      155.120 
0.000436933      1.14490      117.013 
9.12363e-05      1.48499      134.454 
0.000436644      5.97451      156.524 
0.000179508      6.57541      152.266 
0.000405257     0.388330      55.4915 
0.00111327     0.636553      136.273 
0.000176293      1.60860      128.437 
0.000566237      2.14979      134.246 
8.83568e-05      1.82538      147.529 
0.000170518      1.41534      132.709 
0.000374673      2.14597      140.673 
0.000790156      1.74631      159.905 
0.000562154      2.24009      150.001 
0.000757650      6.58386      152.501 
8.66442e-05     0.504777      146.310 
0.000510405      2.28569      145.337 
0.000506804      6.10288      155.199 
0.000388343      4.13575      140.691 
0.000248374     0.728011      110.925 
0.000450757      1.21491      147.095 
0.00138238      1.24483      156.318 
8.38942e-05      1.74011      127.528 
0.000691462      5.75142      152.900 
0.000158945      1.74092      137.328 
0.000306766      1.15603      149.886 
0.000911748     0.140000      90.0000 
0.000883803      5.96657      156.701 
0.000234916      1.67057      148.213 
0.000229165      1.56818      127.747 
0.000349373     0.737564      130.601 
0.000597020     0.400000      53.1301 
0.000390162      1.13596      116.114 
0.000385575      6.55308      155.860 
0.000155508     0.740000      108.925 
0.000265873      1.27279      135.000 
0.000293020      6.09108      153.267 
0.000143746      1.19817      146.575 
0.000228168      2.77143      149.178 
7.77549e-05      1.70000      126.870 
0.000556325      2.13054      140.332 
0.000234015      1.40186      132.109 
7.67844e-05      1.72708      151.654 
0.000593830      1.13455      139.289 
0.000292385     0.733757      107.447 
7.38247e-05      1.98172      137.454 
0.000285882      6.77342      155.024 
0.000349428      1.65130      163.101 
0.000331346     0.412311      50.9061 
0.000214347      1.14543      114.775 
0.000211158      1.68808      126.327 
0.00176469      2.78173      148.824 
7.24260e-05      1.36029      131.424 
0.00102454      2.43393      136.998 
0.000978134      2.25743      150.255 
0.00120116      6.57133      155.931 
0.000188063      1.73540      152.549 
0.000194153     0.313050     -26.5651 
7.01132e-05      1.12730      115.201 
0.000576678      1.37361      132.049 
0.00149434      5.87173      158.416 
0.000886787     0.425206      48.8141 
6.92456e-05     0.747262      105.524 
0.000130155      1.61443      138.013 
0.000411310      2.13588      133.862 
6.87380e-05      2.48709      152.199 
0.000366708      1.19281      145.244 
0.000197442      1.68345      156.176 
6.79717e-05     0.728011      105.945 
0.000260328      5.73362      152.809 
0.000693277      6.79155      155.095 
0.000567232      1.13719      113.860 
6.69865e-05      1.75568      137.770 
0.000261196     0.742159      104.036 
0.00108095      2.71860      157.964 
0.00105553      6.84763      151.189 
0.000748097      4.15124      140.866 
0.000237413      1.55602      127.164 
0.000366254      1.67045      163.301 
0.000209557      6.10894      153.351 
0.000240781      8.16835      147.905 
0.000250367      5.89033      158.488 
0.000124220      2.50480      152.412 
0.000248913      5.94821      156.624 
0.000124374      1.67631      125.776 
0.000123010      2.13551      134.621 
6.32568e-05      2.13335      141.089 
6.26519e-05      1.66433      147.265 
0.000384772      9.24770      148.441 
0.000184088     0.737564      102.529 
6.24592e-05      1.76511      160.128 
0.000238145      6.17744      159.335 
6.13248e-05      2.14895      141.423 
0.000177725      5.71584      152.718 
6.06053e-05     0.484149      141.710 
0.000150381      6.83011      151.108 
5.93587e-05     0.894427      116.565 
0.000355690      6.60161      152.581 
0.000230066     0.733485      101.004 
5.85780e-05      5.92986      156.548 
0.000161882      1.14978      139.939 
0.000363108      1.69387      157.068 
0.000167701      1.66469      125.218 
0.000999293      7.34221      144.535 
0.000409864      1.22654      155.943 
5.77857e-05      8.23837      145.384 
0.000484223      1.12925      112.932 
0.000165475      2.53124      153.232 
0.000113425      5.89318      156.393 
0.000225939      1.95346      137.490 
0.000263334      6.12683      153.435 
0.000705830      6.19616      159.401 
5.62056e-05      1.68404      164.148 
0.000106095     0.407922      101.310 
0.000109639      5.72451      152.987 
0.000585092      8.22192      145.305 
0.000154443     0.876584      117.150 
0.000108728      5.87486      156.315 
0.000628381      1.70329      164.332 
0.000802893      6.58960      156.002 
0.000210334     0.729931      99.4623 
0.000750944      6.17414      151.775 
0.000154597      8.28379      152.383 
0.000103755     0.722772      104.421 
0.000928362      1.20930      145.784 
5.26813e-05      5.85655      156.236 
0.000188794      1.77054      138.205 
0.000102519      2.30217      145.620 
0.000241245      8.54599      151.636 
0.000150490      4.30005      133.869 
0.000198938      5.69807      152.625 
0.000100262      1.55666      137.083 
0.000181279      8.15142      147.831 
0.000461568      5.73554      155.043 
9.91204e-05     0.331059     -25.0169 
0.000461662     0.161245     -150.255 
0.000429710      2.54912      153.435 
5.08247e-05      5.83825      156.157 
0.000145183      1.65324      124.651 
0.000275278     0.394462      59.5345 
0.000158027      1.51605      126.416 
5.01042e-05      6.04013      157.001 
9.46625e-05      6.14472      153.518 
4.91958e-05      1.12161      111.991 
0.00110060      7.20514      155.569 
0.000279798     0.726911      97.9072 
0.000368795      7.71868      156.158 
9.54888e-05      6.05855      157.075 
9.61606e-05      1.14018      111.615 
0.000293930      1.27311      136.273 
4.79127e-05      2.12151      134.236 
0.000257876      1.52801      127.020 
9.29370e-05      2.29713      144.926 
8.83454e-05      1.75317      152.850 
0.000624670      1.13296      110.674 
0.000134052      2.12207      133.472 
0.000205550      5.70670      152.896 
0.000240975      8.30152      152.447 
0.000443899      9.24117      148.271 
4.59518e-05      6.07697      157.148 
0.000315120      4.31449      133.685 
4.56622e-05      6.78189      154.871 
4.53514e-05     0.885889      118.301 
0.000496843      2.24758      150.698 
4.51433e-05      5.81997      156.077 
0.000104140     0.538516      148.671 
0.000656217      8.52840      151.572 
0.000375165     0.724431      96.3402 
8.38690e-05      1.14769      138.532 
0.000128627      6.09541      157.221 
4.37591e-05      1.66973      124.261 
8.45843e-05      6.76379      154.799 
4.35957e-05      2.31353      145.211 
0.000162524     0.340000     -28.0725 
0.00102850      6.21489      159.466 
0.000439502      6.15367      153.352 
0.000233943      7.74576      153.303 
0.000237795      6.61937      152.661 
0.000121881     0.404969      57.0948 
0.000191639     0.868332      118.926 
4.23927e-05      2.32998      145.491 
0.000352835      7.73698      156.218 
0.000146819      5.72496      156.749 
0.000218599      7.16706      151.862 
0.000118590      2.10761      133.847 
0.000162388      1.72256      164.511 
0.000116848     0.516140      144.462 
0.000319406      5.68890      152.804 
0.000179083      5.71741      154.959 
0.000120158      1.65855      123.690 
4.08119e-05      9.37488      149.770 
0.000273839      8.67018      145.907 
4.04677e-05      8.29308      152.261 
7.98009e-05      6.11385      157.294 
0.000371958      5.80169      155.997 
4.01665e-05      2.10836      133.078 
7.77336e-05      2.34649      145.768 
0.000233902      1.78550      138.633 
0.000561935      5.70782      154.692 
0.000182464      4.15423      141.254 
0.000579228      2.73240      132.330 
3.89876e-05      6.95715      156.088 
0.000146687      5.68032      152.533 
0.000545010      1.75602      165.489 
0.000142706      2.36305      146.041 
3.84222e-05     0.416173      54.7824 
3.82023e-05      6.74569      154.727 
0.000285910     0.722496      94.7636 
3.79997e-05      6.98570      156.371 
0.000137583      2.56702      153.635 
0.000709917     0.440454      50.5275 
0.000109289      7.60232      147.899 
0.000109624      6.13231      157.366 
0.000236768      9.39217      149.831 
3.71482e-05     0.428019      52.5946 
0.000139462      1.64754      123.111 
6.05984e-05     0.424264      98.1301 
0.000411892      7.17707      155.292 
0.000106242      2.09380      133.452 
0.000169368      7.00403      156.436 
0.000656239      1.12606      109.722 
3.60217e-05      6.72761      154.654 
0.000397690      2.05105      156.435 
0.000315833      6.64581      152.972 
3.55747e-05      8.18213      151.054 
0.000570444      7.74726      156.413 
0.000102561      1.38852      131.496 
0.000477974      7.13762      153.722 
0.000535107      5.30377      140.969 
-0.000258822      4.01103      124.641 
0.000267209      1.24483      136.302 
0.000375434      7.88642      148.164 
0.000127903      6.15077      157.437 
0.000231350      8.22703      145.499 
0.000193347      7.58538      147.818 
6.62045e-05      2.09476      132.678 
3.34206e-05     0.787909      113.962 
-0.000339638      3.16304      122.082 
0.000194965      1.50000      126.870 
3.30702e-05      7.75469      153.501 
0.000188995     0.721110      93.1798 
3.28683e-05      6.69149      154.507 
0.000319663      6.09183      145.162 
0.000180897      2.39082      145.911 
-0.00129100     0.375766      154.799 
6.43274e-05     0.532541      145.713 
0.000119520      8.31925      152.511 
5.93869e-05     0.975090      115.514 
0.000271937      2.41934      136.675 
0.000122740      1.63670      122.525 
6.22210e-05      4.28621      133.677 
9.21966e-05      2.08010      133.052 
0.000114390     0.427551      100.784 
0.000269864      2.26504      150.945 
0.000271896      3.63918      132.104 
0.000118296      2.18961      129.068 
0.000240887      7.77259      153.567 
6.05787e-05     0.888369      121.185 
0.000113228      5.70659      156.670 
0.000255444     0.555698      149.744 
5.92230e-05      5.77339      155.655 
0.000167719      7.02236      156.501 
3.03465e-05      1.48809      126.254 
3.01315e-05      6.65540      154.359 
0.000272626     0.720278      91.5911 
0.000110662      1.14630      137.121 
-0.000360469      3.99460      124.804 
5.64754e-05      1.78617      145.954 
0.000127394      1.37535      130.872 
0.000187369      2.06649      132.647 
5.54126e-05      2.71897      132.019 
0.000105003      1.80056      139.054 
0.000181869      6.42025      150.720 
0.000136623      1.62604      121.931 
0.000353782      1.77539      165.651 
2.84083e-05      4.27242      133.483 
0.000282426      7.76559      156.472 
0.000175486      6.16925      157.509 
2.82845e-05     0.898888      122.276 
2.82677e-05      2.43508      137.663 
5.47240e-05      6.63738      154.284 
0.000126073      7.17532      152.078 
0.000156030      2.76463      148.610 
0.000202678     0.637809      138.814 
0.000176739      7.31095      139.994 
0.000100156      9.09514      151.068 
0.000226653      2.41205      142.750 
0.000102663     0.141421      98.1301 
2.72928e-05     0.909725      123.341 
0.000103374      2.17706      128.660 
0.000121229      5.79161      155.736 
7.80393e-05      6.75195      158.451 
5.19170e-05      4.18760      133.452 
0.000123309      6.66363      153.050 
0.000266495      7.11961      158.408 
0.000193134      6.75399      144.521 
0.000119813      1.80278      146.310 
0.000264956      1.11946      108.759 
9.53816e-05      6.81261      151.027 
9.59347e-05      2.40208      145.516 
0.000213542      1.26317      156.682 
7.35615e-05      8.33700      152.574 
5.04453e-05      4.14584      129.912 
2.57281e-05     0.932309      125.395 
0.000190730      1.61555      121.329 
0.000118964     0.260768      94.3987 
0.000118948      6.07543      145.054 
4.83154e-05      6.61937      154.209 
7.10445e-05     0.920869      124.380 
7.11272e-05      7.04071      156.566 
0.000140616      7.15556      153.793 
0.000139719     0.720000      90.0000 
4.65817e-05     0.724707      129.401 
0.000116172      1.17456      137.070 
0.000115816      2.05300      132.236 
4.76644e-05      8.17577      154.187 
2.41309e-05     0.993177      115.017 
9.23292e-05      7.76930      140.327 
6.95483e-05      4.13304      129.699 
4.62148e-05      6.73335      158.388 
6.88730e-05      8.14125      154.694 
4.68832e-05      2.42800      143.036 
-4.66551e-05      6.96287      148.867 
6.87455e-05      7.90342      148.241 
4.59450e-05      2.20518      128.741 
4.53067e-05      6.40281      150.632 
4.50957e-05      8.16708      154.313 
-4.54656e-05      6.48919      138.498 
-9.00635e-05      2.47952      160.688 
2.28900e-05      2.70385      158.749 
-4.52363e-05      6.97323      148.726 
2.26821e-05     0.126491      108.435 
-4.47202e-05      5.14898      133.741 
2.25833e-05      2.69666      159.146 
2.23939e-05      3.62580      131.870 
2.23643e-05      7.29564      139.893 
-2.21807e-05      6.99034      148.811 
2.21028e-05     0.181108      173.660 
2.20483e-05      2.70836      159.692 
