! Center RA: 16 42 58.80997,  Dec: +39 48 36.99402 (2000.0)
! Established model.
! Flux (Jy) Radius (mas)  Theta (deg)  Major FWHM (mas)  Axial ratio   Phi (deg) T \
! Freq (Hz)     SpecIndex
   1.06850      0.00000      0.00000 
 0.0846218    0.0824621     -75.9638 
 0.0408312    0.0200000      90.0000 
  0.137374    0.0447214      116.565 
  0.151321     0.101980     -78.6901 
  0.205945     0.121655     -80.5377 
  0.305331    0.0632456      108.435 
  0.119864     0.141421     -81.8699 
 0.0940343    0.0600000      90.0000 
 0.0121137     0.164924     -75.9638 
 0.0108605     0.203961     -78.6901 
 0.0348945     0.223607     -79.6952 
0.00941112     0.126491     -71.5651 
 0.0253560     0.240832     -85.2364 
 0.0373639     0.107703     -68.1986 
 0.0230880     0.243310     -80.5377 
 0.0621511    0.0824621      104.036 
 0.0343369      1.61307     -107.312 
0.00946469     0.260768     -85.6013 
0.00948927     0.607289     -107.241 
0.00546766      1.60723     -106.631 
0.00917169     0.431741     -103.392 
 0.0174218     0.601664     -105.422 
0.00265559     0.263059     -81.2538 
0.00669609    0.0894427     -63.4349 
0.00455166      1.52486     -106.771 
0.00442421      1.62641     -106.429 
0.00500142     0.266833     -77.0054 
0.00885841      1.50572     -106.991 
0.00384886      1.63218     -107.103 
0.00736183     0.427551     -100.784 
0.00174108      1.63487     -104.886 
0.00167165      1.63193     -109.323 
0.00504870     0.272029     -72.8973 
0.00157076      1.62505     -103.523 
 0.0299986    0.0894427      116.565 
0.00149521      1.63866     -109.983 
0.00145085      1.63573     -101.997 
0.00382536      1.50000     -106.260 
0.00261178     0.646220     -111.801 
0.00387229      1.64560     -110.638 
0.00136431     0.451221     -102.804 
0.00133611      1.63169     -101.310 
0.00467320      1.28265     -100.784 
0.00136887     0.278568     -68.9625 
0.00122200      1.62788     -100.620 
0.00337650     0.777946     -107.969 
0.00230486      2.24571     -85.9144 
0.00323147     0.596657     -103.570 
0.00442450      2.10152     -87.8184 
0.00114193     0.268328     -63.4349 
0.00113094      2.44295     -92.8156 
0.00112145      1.62099     -99.2299 
0.00640729      1.65276     -111.286 
0.00277380      2.28429     -93.5138 
0.00105293      1.48661     -107.216 
0.00198458      2.44401     -93.2839 
0.00195651     0.653911     -113.429 
0.00162132      2.26716     -85.4462 
0.00102729      1.61245     -97.1250 
0.00508626     0.277849     -59.7436 
0.00366087      2.26883     -84.9428 
0.000973367     0.424264     -98.1301 
0.000961273      1.61009     -96.4188 
0.00469413     0.791202     -106.144 
0.00400032      2.43393     -83.8678 
0.00386030      1.49265     -107.949 
0.00573187      1.27906     -99.9042 
0.00638510      2.60069     -88.6780 
0.000908689      2.28561     -94.0142 
0.000893373      1.60798     -95.7106 
0.00276720     0.592284     -101.689 
0.00158019     0.316228     -124.695 
0.00158819      2.46658     -94.1849 
0.000860886      1.64924     -104.036 
0.00229355      2.31050     -95.4638 
0.000842522      1.77133     -96.4831 
0.000820611     0.420476     -92.7263 
0.00441808      2.46941     -98.8520 
0.00225646      1.60611     -95.0006 
0.00542532      1.11571     -104.534 
0.00211698     0.662118     -115.017 
0.00317406      2.10238     -87.2737 
0.000792889      1.76918     -95.8395 
0.000787158     0.100000     -90.0000 
0.000755994      1.76182     -92.6026 
0.00272793     0.912140     -105.255 
0.000741995     0.420000     -90.0000 
0.00129365      1.78539     -99.6734 
0.00202336      1.92375     -86.4237 
0.00183784      2.42124     -82.4054 
0.00389062      1.66012     -111.930 
0.00130920      2.42132     -88.1066 
0.00133044      1.66865     -103.870 
0.000667191      1.76102     -91.9525 
0.000666198     0.420476     -87.2737 
0.00359723     0.288444     -56.3099 
0.000650669      1.78885     -100.305 
0.00123551      2.42396     -81.9368 
0.00212741     0.101980     -101.310 
0.00112628     0.670820     -116.565 
0.00317329      1.60449     -94.2892 
0.00163201     0.325576     -132.510 
0.000616219      2.10950     -95.4403 
0.00115301      2.60231     -97.5073 
0.00105728      1.67356     -104.534 
0.00304657      5.28061     -89.1319 
0.000601626     0.421900     -84.5597 
0.00156248      1.76045     -91.3020 
0.000592745      1.93256     -96.5366 
0.00185279      5.44298     -88.1049 
0.000585182     0.468188     -109.983 
0.00293066      2.31249     -95.9571 
0.00340124      5.59035     -86.5132 
0.00291277      1.92510     -85.8296 
0.000575014      2.46812     -94.6480 
0.000559298      2.56944     -85.0882 
0.000553817     0.931450     -104.931 
0.000549298      2.40707     -81.3986 
0.00217349     0.588558     -99.7824 
0.000531834     0.424264     -81.8699 
0.000966427      2.42207     -87.6338 
0.00309186      4.84595     -92.8388 
0.000979797      1.93494     -97.1250 
0.000983041     0.791202     -110.726 
0.00131693      2.11149     -95.9806 
0.000510914      2.10343     -86.7295 
0.00192280      5.14004     -90.2229 
0.00486860     0.936803     -106.113 
0.000957337      1.45382     -97.9072 
0.000952514      2.41015     -80.9285 
0.000501120     0.412311     -75.9638 
0.000957548      2.76065     -88.7546 
0.000495400      1.79254     -100.934 
0.00287530      2.60500     -97.9435 
0.000900867      1.48661     -109.654 
0.00128162      1.74734     -84.7462 
0.000867230     0.475395     -112.249 
0.000903598      2.57317     -84.2008 
0.000874500      5.58004     -90.2054 
0.000464554      2.46982     -95.1104 
0.00112304      2.08959     -84.5077 
0.000864983     0.417612     -73.3008 
0.000442816      4.74017     -89.5165 
0.000434443     0.806226     -113.385 
0.00193121      5.56014     -90.4122 
0.00167913     0.672309     -120.379 
0.00114279      5.00144     -91.3748 
0.00336517      2.78065     -88.7636 
0.000419574      1.80189     -98.9396 
0.000416238      5.93218     -86.3273 
0.00165130      2.24758     -78.1901 
0.000794876      1.27577     -99.0193 
0.00156767      2.60031     -89.1186 
0.00108332     0.339411     -135.000 
0.00314306      1.66769     -112.567 
0.000930309      1.96010     -98.2128 
0.00165722      4.74038     -89.2748 
0.000753992      2.41338     -80.4596 
0.000402568      1.45121     -97.1250 
0.000399764     0.798499     -112.068 
0.000399788      1.74929     -84.0939 
0.000399816      5.59160     -86.3086 
0.000394162      2.47370     -96.0333 
0.00109441      5.78584     -87.4244 
0.000744708     0.107703     -111.801 
-0.000393591     0.181108      83.6598 
0.00108391      5.95214     -86.3396 
0.000539427     0.456508     -61.1892 
0.00258444      4.92260     -88.1374 
-0.00724520     0.180000      90.0000 
0.00165953      1.79611     -97.6790 
0.00150830      5.34060     -90.8583 
0.000375461      5.15713     -94.6714 
0.00185140      1.92666     -85.2364 
0.000712059      1.49345     -110.376 
0.000709739      2.60783     -81.6213 
0.00172168     0.144222     -33.6901 
0.000364237      2.47257     -99.3099 
0.00192904      2.15713     -72.7410 
0.000357090      5.34034     -90.6437 
0.000655438     0.585491     -97.8533 
0.000648128      1.42506     -94.8304 
0.000350510     0.785875     -104.744 
0.000844900     0.466476     -59.0362 
0.00142038      5.15880     -94.8928 
0.000344983      1.28000     -90.0000 
0.000345590      5.60803     -86.9335 
0.000546476      1.11086     -103.536 
0.00596070     0.116619     -120.964 
0.000330233      2.45618     -99.8458 
0.000327059     0.431741     -76.6075 
0.000651866      5.28095     -88.9150 
0.000735794     0.822922     -115.942 
0.000321930      1.78213     -80.9605 
0.00153528     0.300000     -53.1301 
0.000320379      5.59732     -85.4914 
0.00147878      2.06737     -102.288 
0.000786952      1.76011     -90.6511 
0.000815639     0.483322     -114.444 
0.00101105      5.93350     -86.1345 
0.00107768      1.28016     -89.1048 
0.00109134      2.61082     -81.1871 
0.000310250      1.79889     -98.3103 
0.000820827      5.41069     -86.3972 
0.000858897      1.50053     -111.092 
0.000583471      2.26566     -85.9504 
0.00120232      2.29085     -102.095 
0.000816368      1.78539     -80.3266 
0.00104073      5.60700     -87.1376 
0.00177418      6.10574     -84.7376 
0.00191397      6.26540     -87.6217 
0.000294124      5.76781     -87.0185 
0.00107900      6.28372     -83.2369 
0.000560655      2.46000     -77.3196 
0.000522552      1.82439     -102.665 
0.00136732     0.601664     -74.5778 
0.000821767      2.49576     -96.4416 
0.00214107      6.52481     -73.6204 
0.000535460     0.477074     -56.9761 
0.000286871      5.95345     -86.1475 
0.00188441      6.70322     -73.8902 
0.000281265      1.74562     -85.3999 
0.000277624      5.02323     -92.0536 
0.000632962     0.940213     -88.7811 
0.000529590      1.79354     -97.0458 
0.000466052      2.45967     -100.305 
0.000982378      5.97759     -80.7583 
0.000887427     0.484149     -51.7098 
0.000902148      5.26574     -84.3327 
0.00114516      5.76888     -86.8202 
0.000265792     0.776660     -101.889 
0.000708969      2.10086     -88.3634 
0.00103374      5.46761     -82.4331 
0.00185959      5.88666     -92.7263 
0.000257711      1.10454     -84.8056 
0.000965917      6.34331     -74.0794 
0.000248186      1.50785     -111.801 
0.000567051      5.00196     -91.6039 
0.00123217      5.17366     -100.919 
0.00126317      5.99206     -74.7113 
0.00132214      1.10653     -83.7742 
0.000668687      4.40654     -86.8779 
0.00104635     0.356090     -141.843 
0.000422795     0.831865     -117.181 
0.000445097      2.26000     -90.0000 
0.000396533      4.64349     -92.2216 
0.000231197      1.50479     -113.499 
0.000618404      5.81257     -82.2881 
0.000601786      5.34094     -91.0728 
0.000432610      2.46447     -76.8660 
0.000228905      1.98081     -78.3497 
0.000994317      6.60439     -81.9926 
0.00111264     0.161245     -29.7449 
0.000225815      6.78024     -81.1767 
0.000808511      2.61396     -80.7539 
0.000618915      1.78885     -79.6952 
0.000419571      6.28140     -83.4181 
0.000725742      1.42352     -94.0283 
0.00143557      4.10585     -83.5673 
0.000912676      5.08394     -87.7454 
0.000218366      5.60061     -85.0834 
0.000217937      4.28924     -83.3058 
0.000565146      1.66397     -103.201 
0.00236882      6.77720     -81.3438 
0.00154936      8.29120     -83.6293 
0.000518272      1.58202     -92.8986 
0.000214105      6.26626     -87.4390 
0.00125000      1.51288     -114.193 
0.000213289      4.64431     -92.4681 
0.000526778     0.688186     -125.538 
0.000573031      1.97687     -78.9174 
0.000207690      5.02573     -92.7372 
0.000699328      4.27177     -83.0081 
0.000867725      5.17749     -101.136 
0.00117782     0.107703      111.801 
0.000859243      5.72224     -91.6023 
0.000919577      6.61743     -85.8404 
0.00161883      4.08240     -73.7847 
0.000829530      1.76000     -90.0000 
0.000854591      5.34344     -95.3692 
0.000934146      1.28062     -88.2101 
0.000696788      2.19463     -108.600 
-0.0146232    0.0400000     -180.000 
0.00127490      5.99416     -80.9777 
0.000199509     0.772787     -100.437 
0.000649080      2.10466     -93.8141 
0.000348397      5.41199     -86.1859 
0.00110973      5.47028     -82.2254 
0.000197147      1.80942     -103.422 
0.000698432      4.60721     -96.2303 
0.000518146      5.17873     -94.8739 
0.000195792     0.178885     -26.5651 
0.000673862      2.34009     -71.5651 
0.00104657      2.78115     -88.3517 
0.000971633      5.97116     -97.5059 
0.000188891      5.02482     -92.5094 
0.000337874      5.94013     -89.6142 
0.000185484      4.75521     -85.4165 
-0.00250681     0.181108      96.3402 
0.000185149      2.08000     -90.0000 
0.000644849      5.77003     -86.6219 
0.000181490      1.92842     -84.6442 
0.000688642      8.26835     -78.4183 
0.000179138      5.64046     -94.8817 
0.00210206      4.96407     -82.3596 
0.000179059     0.491935     -116.565 
0.000178061      2.46909     -76.4140 
0.000390101      5.93488     -85.9419 
0.00173577      7.42994     -77.7221 
0.000463192      7.98183     -81.7887 
0.000347030     0.128062     -141.340 
0.000447635      1.43611     -77.1250 
0.000172885      2.08614     -85.6013 
0.000300880      5.60603     -87.3417 
0.000171663      6.44987     -84.4839 
0.000467418      2.26035     -88.9860 
0.000588026      7.36027     -74.7176 
0.000613637      2.16315     -72.2351 
0.00375643     0.113137     -135.000 
-0.00146353     0.184391     -102.529 
0.000169264      6.37595     -72.4744 
0.000746119      5.64921     -79.8040 
0.000802788      4.44347     -81.9793 
0.000308270      5.65693     -73.3590 
0.000238781      2.61457     -76.2827 
0.000807295      6.61601     -86.0131 
0.00140012      6.13296     -69.3783 
0.000302028      5.26380     -84.5493 
0.000316609      5.99443     -73.9233 
0.000458292      1.97342     -107.700 
0.000753459      2.63370     -80.8238 
0.000754743      2.33452     -96.3944 
0.000848481      6.78657     -84.9279 
0.000159530      2.90000     -83.2671 
0.000159201      1.09636     -128.333 
0.000834228      7.70413     -74.9536 
0.000429530      6.58741     -81.7961 
0.000157328      5.60236     -84.8796 
0.000526262      2.26142     -87.9727 
-0.00441194     0.181108     -96.3402 
0.000154239      5.84086     -73.4887 
0.000154020      1.97312     -79.4874 
0.000153257      2.63059     -98.7462 
0.000152248      5.57028     -95.9767 
0.000340823      7.53406     -75.0784 
0.000595894      1.64924     -112.834 
0.000149004      1.81218     -79.1861 
0.000258324      6.32674     -78.5125 
0.000487055      2.90241     -82.8750 
0.000512215      7.88835     -75.0124 
0.000146877      6.06030     -90.5673 
0.000531673      5.84657     -73.3008 
0.000145633      4.58733     -96.2574 
-0.00620683     0.184391      102.529 
0.000144805      2.10343     -93.2705 
0.000144085      6.18760     -73.0879 
0.000824091      7.26892     -87.1612 
0.000378243      1.62985     -75.7932 
0.000141798     0.769415     -98.9726 
0.000252386      1.77629     -97.7652 
0.000261161      3.07168     -81.7644 
0.000959760      6.84935     -69.1307 
0.000140051     0.430813     -68.1986 
0.000460119      6.04013     -90.3794 
0.000643960      4.65296     -98.6525 
0.000585378      5.56823     -95.7720 
0.000250049      6.27914     -83.5993 
0.000260347      1.69293     -104.365 
0.00116917      1.10887     -129.144 
0.000256483      2.60990     -76.7092 
0.00330939     0.100000     -126.870 
0.000136652      1.74184     -87.3676 
0.000372743      6.10266     -88.3098 
0.000976587      2.18833     -108.104 
0.000515129      6.19345     -72.9109 
0.000451389      4.58519     -96.0090 
0.00283063     0.241661      65.5560 
0.000287954      2.71588     -80.6764 
0.000133982      6.31116     -78.2984 
0.000637981     0.128062     -38.6598 
0.000516491      5.77124     -86.4237 
0.000488317      4.98100     -91.1504 
0.000132557      1.96621     -80.6335 
0.000470287      5.79009     -97.5423 
0.000244025      6.36996     -72.6460 
0.000579240      1.94833     -107.319 
0.000130429      2.27130     -77.7995 
0.000243729      5.08476     -87.5202 
0.000129735      5.30754     -95.8395 
0.000359755      3.97417     -65.6276 
0.000129173      2.94333     -87.2737 
0.000129230      1.79644     -101.560 
0.000453798      8.05501     -74.4454 
0.000215267      4.66429     -92.4575 
0.000128130      5.63205     -73.4956 
0.000127878     0.438634     -65.7723 
0.000994627      7.23107     -67.9043 
0.000350773      5.47087     -68.7820 
0.000126449     0.620967     -75.0686 
0.000126371      5.72171     -91.4021 
0.00126154      1.09490     -80.5377 
0.000344768      5.16035     -90.6662 
0.00105136      6.78837     -84.7597 
0.000996163      5.65279     -79.6045 
0.000124516      6.00097     -75.1301 
0.000220433      2.34649     -71.1018 
0.000404395      8.04301     -75.3072 
0.000122964      5.58426     -84.6569 
0.000541366     0.152315     -23.1986 
0.000706801      6.15038     -79.1285 
0.000121131      1.12641     -106.504 
0.000121263      2.51794     -96.8428 
0.000388529      4.96729     -96.0090 
0.000120002      5.63993     -98.3600 
0.000218803      1.52053     -116.565 
0.000119178      5.98645     -73.5024 
0.000303150      6.04030     -90.5691 
0.000325360      5.41335     -85.9747 
0.000196379      4.76067     -89.0371 
0.000227973     0.228035     -164.745 
0.000469385      6.38113     -88.9225 
0.000685125     0.113137     -45.0000 
0.000490806      5.33985     -94.9419 
0.000369636      6.59030     -81.6240 
0.000380042      1.96306     -81.2095 
-0.00788048     0.180000     -90.0000 
0.000320223      5.74125     -91.1976 
-0.00118692      4.04000     -78.5788 
0.000362555      2.71271     -81.0933 
0.000115183      2.21387     -112.859 
0.000114825      1.71231     -104.199 
0.000683241     0.379473     -161.565 
0.000480567      6.01491     -76.1486 
0.000676110      4.42773     -67.1412 
0.00162302    0.0894427     -116.565 
-0.0121507    0.0200000     -180.000 
0.000478721     0.942550     -107.281 
0.000212708      3.12410     -87.0643 
0.000112269      2.65669     -99.5332 
0.000111573      4.79771     -100.326 
0.000697425      3.78259     -87.8789 
0.000213240      2.61725     -80.3217 
0.000311794      5.85235     -73.1132 
0.000447402      5.14774     -67.6199 
0.000309424      7.05535     -73.3630 
0.00644556     0.100000      126.870 
0.000445196      4.48754     -93.3215 
0.000436843      6.66915     -69.8261 
0.000108101      5.25525     -85.6347 
0.000198664      4.63672     -100.437 
0.000199183      3.60072     -81.3748 
0.000106901      6.00523     -75.7324 
0.000106888      1.71732     -104.845 
0.000524005      7.38355     -68.7174 
0.000513674     0.100000     -53.1301 
0.000455329      4.30377     -92.3970 
0.000372797      2.53779     -96.7890 
0.000551485      7.46517     -83.6937 
0.000585922      8.59367     -73.5051 
-0.000105333      4.79466     -64.2900 
0.000105324      2.08471     -86.1494 
0.000103929      1.58316     -93.6215 
0.000261011      6.51920     -73.7890 
0.000103502      6.10328     -88.1221 
0.00134288    0.0824621     -104.036 
0.000103303      5.58616     -84.4527 
0.000191051     0.780000     -112.620 
0.000177697      4.27425     -82.7420 
0.000102035      5.86003     -89.8045 
0.000101807      5.25376     -85.8522 
0.000189457      5.65123     -73.5532 
0.000337255      9.28849     -68.1299 
0.000192282      8.28901     -83.7667 
0.000641330      8.98220     -78.4399 
0.000101159      5.85809     -94.5037 
0.000488033      3.96429     -65.2450 
0.000101042      4.40768     -86.6183 
0.000652107      4.52124     -103.299 
0.000352934      7.45399     -80.8915 
0.000512607     0.234094     -160.017 
0.000259332      6.90093     -72.4578 
9.81806e-05      2.26716     -78.2936 
9.73983e-05      5.97381     -97.6961 
0.000887754      8.24672     -69.4114 
9.72851e-05      5.79009     -82.4577 
0.000407795      1.73666     -104.676 
9.67156e-05      8.05762     -73.8593 
0.000563298      5.14296     -100.305 
0.000318277      1.62505     -76.4768 
0.000184024      4.57266     -85.7358 
0.00226162     0.134164     -26.5651 
0.000252640      5.47814     -68.5870 
0.000420773      5.78750     -97.3460 
0.000540713      5.16015     -90.4441 
9.47425e-05      6.27694     -83.7808 
0.000177384      5.08567     -87.2951 
0.000329106      6.38154     -88.7429 
0.000385692      1.94247     -106.756 
0.000469386      1.24258     -93.6914 
0.000176173      6.03606     -94.1803 
9.35693e-05      1.74103     -88.0251 
9.34381e-05      5.64287     -98.5609 
0.000815586      5.84003     -89.8038 
0.000255190      4.07686     -74.0546 
0.000339480      3.93914     -99.9406 
0.000389636      5.54635     -95.5872 
0.000170915      8.03796     -75.4451 
0.000248367      5.25235     -86.0698 
0.000461516      5.83322     -73.0561 
0.000171138      5.85655     -94.3087 
9.11001e-05      7.52516     -74.7449 
0.000387792      2.90496     -82.4836 
0.000175339      1.77910     -98.4034 
0.00131453     0.128062     -128.660 
-0.000514733     0.855102     -79.2157 
0.000306287      4.44630     -81.7241 
8.95909e-05      6.10397     -87.9345 
0.000648302      1.15603     -120.114 
-0.000313724      9.64176     -65.8806 
0.00200368    0.0800000     -90.0000 
0.000227940      7.89015     -74.4137 
0.000164106      5.41479     -85.7636 
-0.000379584      3.70912     -94.0196 
0.000155899      3.06888     -82.1339 
0.000389207      7.06110     -73.2075 
-8.71593e-05      10.0853     -65.2645 
0.000166890      3.10522     -86.6769 
0.000161169      5.31853     -67.6785 
0.000159220      5.86941     -66.9296 
8.58840e-05      2.69615     -99.3924 
8.55634e-05      6.10393     -84.9245 
0.000164876      8.26697     -83.8894 
-8.50667e-05      9.34944     -64.8054 
0.000436982      6.68371     -78.9591 
-0.000588670     0.952680     -129.036 
0.000435337      3.82460     -102.074 
0.000371926      6.70012     -67.7222 
0.000282608      7.43303     -86.6064 
0.000224933      6.14003     -69.2037 
0.000291536      6.02013     -90.3807 
0.000151775      6.36402     -72.8178 
0.000571175      7.28629     -83.5382 
0.000435585      2.73876     -96.7098 
8.19128e-05      5.59017     -84.0446 
0.000218544      3.60378     -81.0604 
-0.000155586      3.34646     -82.7900 
0.000354474      1.64158     -112.190 
-0.000488553      7.71505     -83.1513 
0.000290736      7.77715     -77.0716 
0.000148613      2.33418     -70.4783 
0.000154913      9.02080     -66.6179 
8.11792e-05      5.99216     -73.3191 
8.06816e-05      5.26574     -95.6673 
8.05619e-05      2.26318     -78.7894 
8.03959e-05      7.26796     -87.3187 
-0.000156300     0.509902     -78.6901 
0.000210038      2.35669     -96.8235 
0.000150627      7.90797     -72.9399 
-0.000278158      8.36768     -85.3387 
0.000143983      7.22584     -73.2704 
0.000151611     0.772528     -111.251 
-0.000153501      9.33989     -64.6422 
7.87247e-05      2.20617     -112.380 
0.000211547      4.13342     -64.7989 
0.000146808      1.74046     -88.6831 
0.000209079      9.07960     -74.2800 
-0.000274320      8.23650     -65.9245 
0.000216999      6.85650     -68.9745 
-0.000147565      10.0588     -65.3203 
0.000347471      6.01016     -76.3337 
0.000143915      4.57419     -85.4860 
0.000280151      5.33816     -94.7280 
0.000149335      8.26487     -84.0273 
0.000270887      6.04797     -66.8263 
0.000144912      5.97652     -97.8861 
0.000346606      5.63677     -79.3679 
0.000467385     0.360555     -160.560 
0.000200844      8.23971     -69.5416 
7.63510e-05      5.00100     -101.535 
0.000140923      6.76189     -88.6441 
-0.000270934      2.08125     -70.3462 
-0.000145976      2.42297     -109.781 
0.000217890     0.282843     -98.1301 
0.000336492      8.81930     -82.3109 
7.54420e-05      8.10812     -71.7438 
-0.000280411      1.76477     -113.369 
0.000146627      5.59228     -83.8408 
7.51165e-05      7.96492     -81.6257 
0.000141049      1.81604     -78.5663 
7.47518e-05      6.27481     -83.9623 
0.000137937      6.03755     -94.3696 
-0.00207831     0.170880     -69.4440 
0.000142020      7.37631     -68.8621 
7.37077e-05      7.48289     -83.8627 
7.34983e-05      6.43506     -86.0793 
0.000139080      4.43554     -66.9032 
7.26203e-05      7.69896     -75.0973 
0.000329508      4.79771     -79.6738 
0.000199970      6.41726     -65.5117 
-0.00151138     0.178885      116.565 
0.000133170      3.10644     -86.3086 
7.13471e-05      6.10472     -87.7469 
0.000200749      5.76028     -96.7796 
7.11011e-05      7.11713     -82.7352 
0.000131762      1.80510     -99.5667 
-0.000196686      4.88925     -80.3450 
0.000131220      2.75231     -84.5794 
-7.01308e-05      4.88201     -66.5857 
-0.000136534     0.506360     -80.9097 
0.000199161      3.93573     -99.6538 
-0.000133150      8.86767     -85.4725 
-0.000196540      9.33134     -64.7531 
0.000133094      2.10609     -94.3570 
0.000196553      8.26281     -84.1652 
6.92564e-05      4.76038     -89.2778 
6.91984e-05      7.45718     -80.7398 
0.000197505      7.48078     -84.0150 
6.86506e-05      5.41631     -85.5526 
6.85690e-05      6.34709     -92.7091 
-0.000131077      3.33473     -81.7241 
6.84727e-05      8.11441     -71.6097 
0.000133782      7.58390     -77.3565 
0.000130781      1.40057     -91.6366 
0.000193830      8.64789     -66.9928 
-0.000321714      1.23693     -129.094 
6.77222e-05      5.00504     -101.759 
6.74569e-05      9.01288     -66.7346 
0.000189756      5.59446     -83.6372 
6.66107e-05      6.11444     -86.0613 
0.000129238      3.80258     -87.8901 
0.000250860     0.286356     -102.095 
6.59955e-05      5.08665     -87.0701 
6.60029e-05      8.47455     -66.6416 
-6.58172e-05      10.0672     -65.2169 
0.000187976      9.18107     -66.5064 
0.000125375      5.46688     -68.3154 
6.52882e-05      2.44000     -100.389 
6.54481e-05     0.753923     -111.801 
6.51358e-05      5.85508     -94.1135 
6.50612e-05      2.25938     -79.2869 
0.000125089      1.74184     -105.313 
0.000125477      7.04727     -92.6026 
6.46368e-05      6.12395     -87.9412 
6.42898e-05      1.93494     -82.8750 
6.41371e-05      4.30465     -92.6630 
6.41604e-05      7.28354     -82.4262 
-6.43376e-05      2.41628     -109.335 
6.39252e-05      5.99106     -81.1666 
-6.42301e-05      8.62566     -65.0393 
6.39112e-05      5.25102     -86.2875 
6.35171e-05     0.766551     -97.4959 
6.33184e-05      7.11463     -82.8950 
6.34823e-05      5.32319     -66.9993 
6.28746e-05      8.12074     -71.4758 
6.27767e-05      7.37360     -73.7771 
-6.26852e-05      6.23131     -98.6763 
6.28985e-05      5.97930     -98.0759 
-0.000122835      1.75693     -112.770 
6.22136e-05      4.73865     -84.9150 
-6.20224e-05      9.06830     -80.3507 
6.19102e-05      2.54024     -97.2369 
-6.18958e-05      1.38852     -101.634 
6.17255e-05      5.07279     -94.0695 
6.16928e-05      7.46043     -80.5882 
6.15703e-05      9.27401     -72.8155 
6.14948e-05      4.10814     -83.2902 
6.15601e-05      5.13942     -100.085 
6.12471e-05      6.19935     -72.7342 
6.11416e-05      5.14467     -67.1231 
6.12420e-05      5.41790     -85.3417 
6.09463e-05      7.06691     -73.0523 
6.09397e-05      4.48642     -93.0665 
6.08557e-05      2.28473     -103.671 
6.06699e-05      9.28106     -68.2444 
-6.07898e-05      4.26863     -104.101 
6.05815e-05      1.12161     -129.936 
6.04796e-05      5.33655     -94.5140 
-0.000179637     0.367151     -60.6422 
5.98179e-05      6.27273     -84.1440 
5.98710e-05      8.26080     -84.3032 
-5.98662e-05      4.04401     -78.3011 
5.97605e-05      5.97880     -73.0805 
-5.92976e-05      1.39556     -115.463 
