! Center RA: 08 54 48.87493,  Dec: +20 06 30.64078 (2000.0)
! Tentative model.
! Flux (Jy) Radius (mas)  Theta (deg)  Major FWHM (mas)  Axial ratio   Phi (deg) T \
! Freq (Hz)     SpecIndex
 0.0397976     0.126491     -18.4349 
0.00881499     0.400000     -36.8699 
-0.0107247     0.126491      161.565 
0.00837767     0.395980     -45.0000 
-0.00399324    0.0894427      116.565 
-0.00178320     0.536656     -63.4349 
-0.00164424     0.521536     -57.5288 
-0.00485349      1.48216     -93.0941 
-0.00580622     0.501199     -61.3895 
0.00252256     0.425206     -41.1859 
-0.00640901    0.0894427      153.435 
-0.000556916      1.48486     -94.6355 
-0.00412981    0.0800000      90.0000 
-0.000386164     0.520000     -67.3801 
-0.000442318     0.160000      180.000 
-0.000669142      1.36059     -88.3153 
-0.00137808     0.200000     -53.1301 
-0.00263050     0.226274     -45.0000 
0.00680253    0.0894427     -26.5651 
0.000296283     0.432666     -33.6901 
-0.000653161     0.120000      180.000 
-4.14750e-05     0.282843     -98.1301 
0.00267088     0.233238      149.036 
0.000928698      1.34164     -63.4349 
0.00150205     0.120000      0.00000 
-0.00211482     0.233238     -30.9638 
-0.000171647      1.32061     -88.2643 
-0.000971242      1.72325     -111.801 
0.00106888     0.447214     -26.5651 
-0.000691175      1.64779     -95.5722 
-0.000144887      1.49345     -82.3039 
-0.000243677     0.488262     -124.992 
-0.000344822     0.620967     -104.931 
-0.000190353     0.329848     -14.0362 
-0.000105015      1.45986     -80.5377 
0.000614079      1.91039     -109.573 
-0.000309283     0.362215     -6.34019 
-0.000450813      1.46697     -78.9965 
-8.98007e-05     0.526118     -81.2538 
-0.000627830     0.521536     -122.471 
-0.000461301      1.28810     -115.769 
0.000736721     0.776660     -101.889 
-0.000500606     0.832346     -125.218 
-0.000473157      1.11571     -75.4655 
-2.13855e-05      1.48054     -91.5482 
-0.000295137     0.533667     -77.0054 
-0.000257326      1.56461     -85.6013 
0.000138844     0.632456     -34.6952 
-8.90673e-05     0.847585     -70.7100 
0.000232591     0.768375     -38.6598 
0.000353570      1.32424     -64.9831 
-0.000366311     0.322490     -7.12502 
0.000261197      1.92416     -110.695 
-0.000210736      1.52473     -94.5140 
0.000473031     0.411825     -29.0546 
9.55539e-05      1.68808     -76.2930 
0.000431100     0.809938     -57.0948 
-6.38285e-05      1.76045     -88.6980 
0.000289212      1.17644     -125.311 
-0.000256952     0.861626     -68.1986 
-0.000354675     0.200000     -36.8699 
0.000554279     0.200000      143.130 
-9.97064e-05      1.02840     -76.5043 
-0.000288842      1.52053     -116.565 
0.000151963      1.16482     -105.945 
-0.000141499      1.47513     -77.4712 
0.000125937      1.61047     -75.6186 
-0.000111245      1.80400     -86.1859 
0.000239230      1.53101     -123.275 
0.000202588      1.71814     -77.9052 
-6.84920e-05      1.73666     -118.926 
-8.03254e-05      1.82165     -81.1582 
-9.46110e-05     0.291204     -15.9454 
-6.56524e-05      1.12641     -73.4956 
0.000103436      1.30782     -66.5713 
0.000141268      1.56461     -122.471 
-7.74522e-05     0.582409     -74.0546 
-0.000139001    0.0565685      135.000 
1.25715e-05     0.632456     -18.4349 
1.24401e-05     0.282843     -135.000 
