! Center RA: 04 18 21.28000,  Dec: +38 01 35.76000 (2000.0)
! Tentative model.
! Flux (Jy) Radius (mas)  Theta (deg)  Major FWHM (mas)  Axial ratio   Phi (deg) T \
! Freq (Hz)     SpecIndex
0.00243416      1.50944      57.9946 
0.000640680      1.47567      57.1715 
-0.000889067     0.268328      63.4349 
4.67750e-05      1.44222      56.3099 
0.000743158      1.40911      55.4077 
-0.00120771      1.86118      61.7826 
-0.000476909     0.344093      54.4623 
-0.000326153      1.84261      62.8787 
0.000212729     0.590593      61.6992 
-0.000295641     0.126491      161.565 
0.000681170     0.644981      60.2551 
-0.000258649      4.61511      56.3099 
-0.00110025      4.97610      53.4986 
-8.83754e-05      4.66905      62.9959 
-0.000786100      4.60435      55.6197 
-0.000305738      1.83521      69.5901 
-0.000833669      4.61528      63.2129 
0.000985186      4.81365      64.9256 
0.000305225      8.24291      56.0786 
0.000457049     0.610574      58.3925 
-0.000599916      1.40684      75.1735 
0.000249361      5.42778      60.4122 
-0.000384901      8.86305      59.0362 
-0.000273498     0.291204      164.055 
-0.000136320     0.368782      49.3987 
7.92113e-05      4.84991      65.1258 
-0.000298053    0.0894427      153.435 
-0.000672300      2.64847      64.9831 
0.000673369      2.96998      64.4703 
-7.13981e-05      7.52649      66.8414 
0.000333409      5.24732      66.1705 
-0.000314847      7.48973      66.7211 
0.000898167      7.38875      62.6026 
0.000651009      4.04079      58.3553 
0.000431773      5.39303      60.2024 
-0.000199370      1.82165      70.7693 
-0.000878822      4.90241      68.4590 
-7.20840e-05      4.27551      63.9144 
-0.000320574      8.84253      59.2585 
-0.000244378     0.512250      38.6598 
-0.000867639     0.203961      78.6901 
-0.000359040      7.97155      58.5432 
0.000301645      8.27613      56.2331 
-0.000236699      3.37734      71.3505 
0.000304877      1.37637      54.4623 
0.000445744      5.49516      58.3925 
-2.26840e-05     0.252982      71.5651 
-0.000160107      4.29325      63.4349 
0.000696144      3.21646      68.8602 
-0.000638593      3.88495      73.2443 
-0.000562051      4.02592      62.1619 
-7.92520e-05      5.04714      61.6070 
-0.000556936      8.20614      60.1858 
-0.000309396      2.42157      59.1986 
-0.000519631     0.544059      36.0274 
-0.000440868      3.36476      71.9958 
1.94977e-05      1.07703      58.6713 
-5.50605e-05      7.47401      67.0027 
-0.000772236      4.99296      61.7925 
0.000248760      3.02866      56.3099 
-0.000252338      3.79241      63.7052 
0.000249592      1.05679      60.5241 
-0.000590207      8.17743      64.8138 
-0.000168204      7.45300      66.5995 
-0.000100604     0.379473      71.5651 
0.000276638      5.12640      69.4440 
-3.42110e-05      7.51085      67.1219 
0.000538855      5.37327      66.2974 
-0.000542980      1.41760      73.6105 
0.000194956      3.05103      55.6849 
-1.76384e-05    0.0800000      180.000 
0.000331781      2.04313      66.9487 
0.000480757      7.81547      67.1094 
-7.80668e-05      7.93746      58.3925 
1.65405e-05      8.29843      56.0035 
0.000176488      8.14361      55.6074 
0.000350610      4.01995      58.8407 
-0.000365934      8.44407      64.1632 
-0.000276020      9.11456      60.8477 
-0.000235224     0.341760     -20.5560 
-9.24101e-05      2.73408      69.4440 
-0.000335647      3.32674      71.7829 
0.000226844      7.44269      62.4709 
0.000144910      8.48528      61.2602 
-1.56322e-05      4.34695      63.1992 
8.31623e-05      7.85234      67.2230 
4.43372e-05      8.36612      55.3222 
-0.000244452     0.417612      73.3008 
0.000343906      4.79683      65.3583 
-2.90942e-05      7.56328      66.9606 
0.000216956      8.39905      55.4774 
-0.000370251      7.43720      66.8823 
0.000148419      7.74576      63.3026 
-0.000314873      5.10560      54.5667 
-8.92769e-05      4.31129      62.9595 
-4.42192e-05      1.36821      74.7449 
-0.000338397      2.74838      68.6631 
0.000389401      1.60649      71.1139 
-4.15637e-05      1.88043      66.1613 
-0.000240564      8.48340      69.0013 
0.000341469      4.24000      58.1092 
0.000242031     0.665733      57.2648 
-0.000194922      7.99250      58.2986 
0.000163369      2.17513      57.7712 
-5.36786e-05      4.89718      69.9369 
0.000156169      5.40814      60.7808 
0.000169829      2.09990      72.2553 
0.000112084      1.35351      55.8403 
3.60521e-05      5.37327      60.5725 
1.33569e-05      5.51623      58.0387 
-0.000155061      2.43606      60.4885 
-0.000213663      1.89694      65.0561 
0.000134275      8.46612      61.4976 
0.000156042      8.00010      61.6410 
-0.000164611      3.82832      63.9704 
-0.000196264      4.57961      62.9873 
-2.50537e-05      4.36513      62.7305 
-4.60215e-05      7.54771      67.2400 
0.000151374      7.82253      65.5318 
-5.99827e-05      4.92130      70.5341 
-1.24966e-05      2.45601      59.6764 
0.000175787      2.81965      58.3392 
-4.79571e-05      2.53645      52.0458 
0.000216100      8.50459      65.8460 
0.000189783     0.447214      10.3048 
0.000121496      7.16436      66.2974 
-0.000106771      2.80856      63.7999 
-0.000150242      4.91723      68.0255 
-0.000197814      7.73408      69.4093 
7.46848e-05      8.63046      65.9297 
7.39797e-05      8.23194      56.6960 
-4.54187e-05      4.08000      61.9275 
-0.000176712      2.51205      52.7652 
-0.000259044      7.37271      64.9643 
7.75551e-05      4.81481      56.1779 
0.000144205      7.21343      65.4246 
0.000135188      4.33848      67.2176 
-8.17886e-05      4.93477      70.0963 
4.35841e-05      3.16481      69.2744 
0.000131845      1.00240      61.3895 
0.000121642      3.21048      59.2811 
2.20581e-05      8.44711      61.7360 
0.000130214      4.41814      58.3245 
7.08427e-05      2.87472      58.0791 
-0.000160197      3.72022      53.7462 
-7.09400e-05      8.33019      60.3575 
0.000180659      8.40952      62.2161 
-1.08154e-05      8.93371      57.8043 
0.000130369      3.17918      68.6002 
-5.97226e-05      5.02824      62.0079 
-0.000108917      8.19453      64.5607 
-0.000110122      4.09898      61.4342 
-8.00293e-05      4.32962      62.4880 
9.95512e-05      2.11244      71.2220 
-8.95302e-05      8.73961      58.8564 
0.000158215      4.83719      55.7843 
-6.93171e-05      8.21365      64.9325 
2.01658e-05      8.46508      55.7843 
5.86633e-05      2.81368      75.1735 
2.98794e-05      8.40390      58.4282 
1.02147e-05      5.31398      64.5923 
-1.95168e-05      8.96759      57.9404 
5.76790e-05      8.34458      57.5288 
1.92909e-05      2.09571      66.3706 
-9.91323e-06      8.46158      63.9195 
3.80620e-05      7.14837      66.5909 
5.70656e-05      2.67402      55.3591 
3.81871e-05      8.50129      65.2437 
-2.85471e-05      2.66563      64.2040 
2.85299e-05      8.92726      64.2386 
-2.85045e-05     0.456070      37.8750 
2.85126e-05      8.61422      66.1726 
9.52869e-06      5.33127      64.2040 
1.88694e-05      3.76128      57.1549 
-2.81838e-05      8.53285      63.5551 
-2.81240e-05      2.48709      62.1985 
1.87304e-05      4.20609      57.8213 
9.43042e-06      1.56461      57.5288 
1.86254e-05      4.39090      66.9385 
-9.38733e-06     0.304631      156.801 
-1.85851e-05      4.93234      67.5946 
-9.33045e-06      8.38475      60.2551 
-1.85628e-05      5.22410      71.7038 
9.26560e-06      8.39095      62.4577 
-9.26700e-06      1.82603      61.1892 
9.20882e-06      5.04206      58.9583 
