! Center RA: 04 18 21.28000,  Dec: +38 01 35.76000 (2000.0)
! Tentative model.
! Flux (Jy) Radius (mas)  Theta (deg)  Major FWHM (mas)  Axial ratio   Phi (deg) T \
! Freq (Hz)     SpecIndex
0.00234664     0.466476      59.0362 
0.000394743     0.488262      55.0080 
0.000470161     0.120000      0.00000 
-0.000982153      1.78393      70.3462 
0.000448803    0.0800000      0.00000 
-0.000984562      2.67043      73.4652 
-0.000274793      3.11333      69.7024 
0.000573627     0.400000      36.8699 
0.000806229      4.45224      58.5948 
-0.00130925      3.28024      74.4385 
0.000211121     0.126491      18.4349 
-0.000522628      2.14401      75.9638 
-0.000747931      1.75317      62.8503 
0.000190379     0.501199      61.3895 
-0.000263491      3.15087      69.9548 
-0.000438384      4.81680      65.9892 
-0.000257341      1.77178      61.6992 
0.000282396     0.432666      33.6901 
0.00112803      8.37606      59.2709 
-0.000617439      8.66699      66.0375 
-0.000787840      8.23223      55.6922 
0.000508311      2.00479      61.3895 
8.09896e-05     0.521536      57.5288 
0.000755336      5.04841      65.6688 
-0.000244263      8.56150      66.3093 
2.63128e-05      7.76371      63.6990 
0.000364057     0.200000     -53.1301 
-0.000233898      7.95719      66.9149 
0.000783076      1.54350      58.7816 
0.000651734      7.74607      63.9642 
-0.000731558      8.74766      63.0834 
0.000160768      4.31129      62.9595 
-0.000728703      4.86966      65.7508 
-0.000234594      7.99400      67.0273 
-0.000234939      3.13739      70.6410 
-0.000643305      2.01316      69.0442 
-0.000239822      3.12743      69.0151 
-0.000485968      7.52447      68.4814 
-0.000509407      1.16000      43.6028 
-0.000182148      2.51078      67.5206 
0.000199655      3.08700      58.7816 
0.000695915      1.98595      62.4027 
-0.000117183      2.56312      67.0362 
0.000381109      3.12128      59.1622 
0.000614200      4.47321      58.1575 
0.000331109     0.341760     -20.5560 
0.000234825      7.71015      63.8338 
-0.000433727      1.79778      69.1455 
-7.71381e-05      9.07965      60.7247 
-0.000622214      2.50727      56.0564 
0.000443612      4.27570      62.7158 
0.000107394     0.544059      53.9726 
-0.000704797      5.14774      67.6199 
-0.000257952      2.98931      65.4926 
-0.000676525      5.26984      55.8275 
0.000156606      5.19461      60.4740 
0.000485063      7.44860      65.9125 
-9.80853e-05      9.09514      61.0678 
0.000356610      5.33322      68.4380 
-0.000434819      1.93080      50.0425 
0.000334707      2.04000      61.9275 
-0.000215779      9.10428      59.9429 
0.000329206     0.344093      125.538 
-0.000619873      3.99440      57.2648 
-0.000287331      4.72762      57.7891 
-0.000487867      7.65882      61.9627 
-8.66517e-05      1.48054      51.5819 
-0.000315395      2.63211      73.2174 
-0.000175095      7.56931      67.6363 
-8.98548e-05      1.54557      79.5625 
-0.000298884     0.646220      68.1986 
8.39182e-05     0.512250      51.3402 
-0.000346979      8.81644      60.0617 
-0.000396353      3.59244      52.2369 
0.000144094      5.21444      60.0916 
0.000193696     0.568507      50.7106 
1.54886e-05     0.377359      32.0054 
0.000247877      7.83551      63.9582 
-0.000146508     0.769415      62.1027 
-0.000402670      4.66905      62.9959 
2.66763e-05    0.0400000      0.00000 
-0.000171364      1.29800      56.3099 
0.000206619      4.95290      58.8775 
-7.61675e-05      8.00969      66.7638 
0.000438329      3.16708      62.1403 
0.000353607      8.24621      67.1663 
-6.24636e-05      3.16228      71.5651 
-0.000305014      8.17743      64.8138 
-0.000203555      4.37539      67.4204 
4.05008e-05      5.15985      60.2551 
-0.000166252      3.78312      56.6460 
0.000214870      3.67347      54.7524 
-0.000256692      3.37260      56.1215 
-8.58690e-05      7.50989      68.7653 
-0.000101331      5.52927      58.6097 
-0.000173632      1.50625      79.2869 
0.000121585      7.72787      63.5676 
-0.000134542      4.74906      57.3808 
0.000158048      8.02755      60.1135 
-0.000144043      2.10523      75.6997 
0.000110368      5.17981      59.8710 
-6.10838e-05      3.10483      68.0615 
0.000213861      1.81108      46.7899 
0.000143692     0.538145      48.0128 
-3.71413e-05      2.39232      69.4440 
0.000122612      8.42330      68.5523 
-3.62507e-05      3.20325      74.0546 
-0.000111655      7.58462      67.3569 
-0.000165588      4.69570      69.5582 
3.42918e-05      7.87147      64.0860 
0.000165055      2.23607      63.4349 
-5.43357e-05      4.88623      65.3231 
-0.000141589      7.56941      61.9453 
-3.32257e-05      2.79113      64.5367 
-0.000162964      7.36098      68.3142 
0.000130122      2.83210      53.6156 
8.90354e-05      3.72924      54.6052 
-9.60399e-05      2.47419      55.5392 
0.000107992      4.99680      70.8398 
-0.000117258      2.44393      68.8952 
0.000118063      5.10560      54.5667 
-0.000121777     0.751532      64.7989 
-0.000138236      5.55021      58.2572 
0.000107540      5.12515      60.0333 
0.000159626      1.74951      79.4608 
1.14526e-05      5.34805      68.0394 
-8.39642e-05      3.16481      73.8557 
9.47478e-05     0.966644      65.5560 
-0.000136749      1.38852      41.4965 
-5.20930e-05      1.73528      64.0256 
-5.12388e-05      3.73631      68.6542 
-4.17462e-05      7.95075      58.7891 
-4.06385e-05      7.97295      66.6504 
-4.05482e-05      7.56169      68.5926 
-6.07831e-05     0.804984      63.4349 
-4.99561e-05      8.02656      58.4486 
-1.02327e-05      1.77539      67.4794 
1.96828e-05      2.73642      52.1250 
1.97044e-05      8.40809      64.0445 
1.96205e-05      2.78568      68.9625 
