! Center RA: 04 23 15.80073,  Dec: -01 20 33.06555 (2000.0)
! Tentative model.
! Flux (Jy) Radius (mas)  Theta (deg)  Major FWHM (mas)  Axial ratio   Phi (deg) T \
! Freq (Hz)     SpecIndex
-0.0100776    0.0400000      90.0000 
-0.00284530    0.0565685      135.000 
0.00100227     0.601332      93.8141 
0.00121636      4.01617     -174.857 
0.000735666      2.46447     -166.866 
0.000746056      4.88213     -172.467 
-0.000552251      1.72186      149.265 
0.000437274     0.944034      126.384 
-0.000893928      1.31939      165.964 
0.000720051      5.25525     -175.635 
0.000647821     0.651153      137.490 
0.000361871      2.98690     -172.304 
0.000683421      2.41661     -167.574 
-0.000812062     0.937230     -140.194 
0.000451411      4.15269     -159.121 
0.000722050     0.561427      94.0856 
0.00101818      3.28877      175.815 
-0.000404730     0.536656      153.435 
0.000505743     0.968297      128.290 
0.000446719      5.21536     -175.601 
-0.000105156     0.993579     -139.899 
0.000481839      3.02655     -172.405 
0.00108836      4.13860     -159.638 
0.000290146      4.96677     -172.131 
3.35750e-05      4.44288      177.936 
0.000154543     0.304631      113.199 
0.000943183      2.30755     -146.310 
3.20887e-05      4.16019      179.449 
-0.000820826      1.70176      156.448 
-0.000922225      2.07885     -149.982 
0.00143983      4.24075      178.919 
-0.000175584      4.57419     -175.486 
-0.000251069      3.68348      177.510 
-0.000798836      3.75105     -158.085 
0.000894506      5.04000      180.000 
-0.000291453      1.35823      166.373 
-0.000496787      1.68760      148.570 
2.83673e-05      4.20076      178.909 
0.000334761      2.02781     -157.989 
0.000350009     0.681175      139.764 
-0.000546786      3.29970     -149.394 
-0.000495457      4.53131     -175.950 
-0.000797658      3.64351      177.483 
7.94420e-05     0.594643      137.726 
9.69566e-05      4.79767     -172.816 
-0.000401377    0.0894427      116.565 
0.000315925      1.78393     -160.346 
0.000391353      2.04313     -156.949 
0.000278370      1.41873      139.574 
8.37434e-05     0.377359      122.005 
9.23997e-05      4.05601     -174.908 
0.000696353     0.256125      38.6598 
0.000458962      2.81823     -173.480 
0.000232264      1.82165     -171.158 
-9.15450e-05      3.28609     -148.438 
-0.000233651      1.01193     -161.565 
0.000111173      1.77088     -161.565 
0.000352840      5.01199     -171.741 
0.000260898      1.81593     -172.405 
-0.000241269      1.31027      167.661 
0.000184505      1.27562      138.814 
0.000452100      1.97990      171.870 
0.000322644      3.35261     -160.484 
-0.000153796      1.77088      161.565 
0.000518368     0.644981     -150.255 
-0.000448530      4.57121     -175.986 
0.000243140      3.66191      173.729 
-6.22744e-05      4.12311     -177.776 
0.000273382      3.36690     -156.176 
0.000203710      1.85559     -172.569 
0.000294609      4.05975     -174.346 
0.000215058      1.73297     -161.147 
0.000170369      2.99172     -150.350 
-0.000150081      4.16308     -177.797 
-7.58959e-05      3.32024     -148.799 
-0.000387288      1.34937      168.024 
5.20721e-05      1.02450      128.660 
-0.000186804      2.04431     -149.421 
3.69313e-05      4.71339     -173.177 
0.000165457      4.28616     -157.504 
-0.000162031     0.961665     -163.072 
0.000360875      1.32484      151.113 
0.000225386      5.04016     -179.545 
-0.000242196      2.23786     -151.144 
0.000133758     0.521536      94.3987 
0.000227048      4.58955     -173.494 
0.000174191      1.84391     -176.269 
-0.000165579      4.20476     -177.274 
6.63407e-05     0.144222     -56.3099 
0.000159463      3.68283      171.254 
0.000203696     0.144222     -33.6901 
0.000126895      2.88139     -166.350 
-0.000171576      1.70176     -150.422 
8.08793e-05     0.888144      125.838 
0.000139282     0.456070      127.875 
9.14328e-05      4.40091     -168.996 
0.000105031      5.09698     -171.425 
0.000120278      1.46751     -162.553 
-0.000149659      4.24471     -177.299 
7.48510e-05      3.41971     -155.833 
3.02056e-05      2.45569     -167.775 
1.53865e-05      1.30599      139.970 
3.01227e-05      4.42900     -159.928 
5.90611e-05      3.31494     -160.253 
-5.93820e-05     0.963328     -138.366 
5.86520e-05     0.856037      127.405 
4.36354e-05      1.34462      149.621 
-2.90628e-05     0.501199      151.390 
-2.90620e-05      2.00998     -148.841 
1.46505e-05      1.44941      140.599 
-2.89137e-05      4.53431      175.446 
1.44102e-05     0.560000      90.0000 
