! Center RA: 04 23 15.80073,  Dec: -01 20 33.06555 (2000.0)
! Tentative model.
! Flux (Jy) Radius (mas)  Theta (deg)  Major FWHM (mas)  Axial ratio   Phi (deg) T \
! Freq (Hz)     SpecIndex
-0.00880340    0.0565685      135.000 
-0.000878090    0.0894427      116.565 
-0.00329459    0.0800000      90.0000 
-0.000995698      1.17644      162.181 
0.000802676      2.40067     -169.439 
0.00122887      2.05913     -172.185 
0.000117031     0.280000      90.0000 
0.00151418     0.282843      98.1301 
-0.000141142    0.0400000      90.0000 
0.000578190      2.36913     -168.311 
0.00125176      2.43310     -152.592 
0.000610790     0.243310      80.5377 
0.00133679     0.256125      38.6598 
-0.000358185      1.07703     -164.932 
-0.000560411     0.268328     -153.435 
3.82090e-05      2.68269     -159.944 
0.000726620      3.16632     -153.759 
-0.00109790      1.21458      162.759 
-0.000400904      1.11571     -165.466 
-6.90311e-05      5.19030     -173.806 
-0.000485503     0.233238     -149.036 
0.00100253      2.40832     -168.503 
-0.000398482      5.15053     -173.758 
0.000325205      2.05407     -173.290 
0.000874444      1.16619      174.094 
0.000363184      4.38251     -158.587 
0.000480543      1.54506     -158.749 
0.000191265      1.12641      173.884 
0.00119004      3.28219      177.905 
-0.000615568      2.44884     -141.633 
0.000339236      3.75766     -154.799 
0.000628511      1.36000      151.928 
-0.000937724     0.993579      139.899 
0.000131545      2.44000     -169.611 
-0.000885343      1.08812     -162.897 
0.000326002      4.36073      178.949 
0.000378466      1.21655      136.332 
-0.000159330      5.11077     -173.709 
-0.000210800      3.28024     -179.301 
-0.000663319      2.42124     -172.405 
0.000604716      2.50727     -146.056 
0.000353221      4.34530     -158.394 
0.000378224      3.14884     -154.411 
-0.000691724      2.04431     -149.421 
-0.000290895      3.56561     -176.785 
0.000476756     0.594643     -160.346 
-6.54868e-05      4.73506     -171.254 
0.000227993      3.54739     -172.875 
0.000514547      4.36018      179.474 
-0.000293339    0.0894427      63.4349 
0.000689450      1.50785     -158.199 
2.18353e-05      4.08960     -176.074 
-0.000239649     0.721110      176.820 
-0.000198992      3.94462      173.596 
0.000333668      4.04969     -176.035 
-0.000117687      5.07102     -173.660 
-5.86907e-05      1.25028     -172.648 
-0.000355262      4.76873     -171.802 
0.000202959      4.22753     -159.507 
-0.000157544      2.79342     -150.866 
-0.000422455      3.98437      173.660 
0.000254120      2.02386     -161.565 
-0.000218718      5.03126     -173.610 
0.000108127      2.01435     -173.157 
-0.000308263      3.60799     -176.186 
0.000141201     0.715542      116.565 
0.000229621      3.29193     -175.121 
0.000243218      1.91541      151.294 
-0.000153602      2.64756     -175.668 
-6.51242e-05      1.21062     -172.405 
5.02581e-05      4.07686     -164.055 
0.000136934     0.609262     -156.801 
0.000491125      1.13137      171.870 
0.000236716      5.12141     -178.657 
0.000159939      3.72151     -154.537 
0.000134804      1.24579      137.603 
0.000278935      1.37928      150.461 
-0.000104710      2.48032     -142.206 
0.000249205      2.41661     -151.314 
-0.000206575      4.52637     -176.961 
0.000157487      4.11534     -164.208 
0.000260984      4.59739     -169.472 
-0.000246559     0.761052      176.987 
-0.000130808      2.82843     -151.260 
8.96230e-05      1.17098      172.147 
-8.88754e-05      3.40000     -151.928 
-1.50574e-05      1.03846     -164.358 
9.83528e-05      3.68912      170.640 
-0.000113230      1.25284      163.301 
-0.000167770      4.96065      179.076 
0.000112185      3.41760     -163.686 
5.62214e-05      2.37453     -147.381 
-4.23541e-05      1.00000     -163.740 
-1.46546e-05      1.17098     -172.147 
-4.28308e-05      2.96594     -169.902 
-0.000193994      3.56808     -176.143 
-0.000110845      2.97321     -162.784 
-2.83599e-05      4.87705     -172.933 
-6.93663e-05      1.05603     -142.696 
-9.63324e-05     0.665733     -147.265 
1.44094e-05      3.68283      171.254 
9.56267e-05      3.60089     -178.727 
6.76219e-05      2.04978     -162.979 
-6.74744e-05     0.963328      138.366 
-6.75645e-05      3.63296     -151.742 
1.36309e-05      3.50771     -172.794 
-2.68778e-05      2.96243     -145.452 
-5.34477e-05      3.75851     -163.301 
-5.31946e-05      1.03769      152.447 
-1.31533e-05      2.07885     -149.982 
