! Center RA: 04 23 15.80073,  Dec: -01 20 33.06555 (2000.0)
! Tentative model.
! Flux (Jy) Radius (mas)  Theta (deg)  Major FWHM (mas)  Axial ratio   Phi (deg) T \
! Freq (Hz)     SpecIndex
-0.0112569    0.0565685      135.000 
-0.00311669     0.113137      135.000 
-0.000784771     0.268328     -153.435 
-0.00224809     0.233238     -149.036 
-0.000918457      1.75636      149.931 
-0.000778639      1.08812     -143.973 
0.000744825     0.644981      97.1250 
0.000801165     0.656049      142.431 
-0.00152511      3.57816     -174.226 
0.000720713     0.568507      140.711 
-0.000556740      4.21521     -170.716 
-0.00157978      4.65721     -175.073 
0.000289784      1.24579      132.397 
-0.000805078      1.32966     -173.089 
0.000317867      2.47935     -169.778 
0.000811345     0.268328      26.5651 
0.000707131      3.56359     -177.427 
0.000740136      2.25211     -160.278 
0.000246231      4.16019      179.449 
0.000548603      1.21918      131.009 
-0.000277405      1.05603     -142.696 
-0.000698730    0.0894427      116.565 
-0.000704783      4.70064     -174.629 
0.00103461      3.50907     -155.772 
-0.00119450      4.31741     -156.523 
-0.000554928      3.61796     -174.289 
0.000116735      4.40164      178.438 
0.000561844      2.44753     -168.690 
-0.000621980      1.77674      148.815 
0.000417447     0.898888      110.854 
0.000610946      2.57402     -147.051 
0.00114727     0.256125      38.6598 
0.000738097      4.28075      178.929 
0.000824275     0.600000      143.130 
-0.000332663      1.15169      159.677 
0.000510401      5.25235     -176.070 
0.000525773      3.06620     -172.504 
0.000222936      4.43062      173.260 
0.000825725      4.30256     -159.880 
-0.000407878      1.28996     -172.875 
5.87327e-05      4.34014     -160.062 
-0.000638281      3.02443     -159.887 
0.000482711      4.72271     -178.059 
0.000176849     0.688186      144.462 
0.000286849      1.19331      129.560 
8.52495e-05      2.40300     -177.138 
0.000346615      2.51873     -147.319 
-0.000185004      1.72000      180.000 
0.000366455     0.411825      60.9454 
0.000511300      2.36305     -177.089 
-0.000976225      1.16619      157.834 
0.000500193      5.08567     -172.316 
0.000386173      2.12641     -163.610 
-0.000279397      3.62215     -173.660 
0.000487891      4.30683     -173.601 
-9.58189e-05      1.84043      178.755 
6.99820e-05      3.96989      175.956 
0.000266088      1.16825      128.047 
0.000502138     0.961665      163.072 
0.000336880      4.37667     -161.896 
0.000326572      3.92999      175.914 
-0.000396340      2.85881     -162.072 
0.000390931      3.54559     -156.038 
0.000337891      1.93494     -172.875 
-0.000154257      2.02425     -150.396 
9.49418e-05      4.43549      172.747 
0.000302053     0.721110      93.1798 
0.000114776      3.52363     -177.397 
-0.000168664      2.50056     -172.648 
7.76470e-05      4.76269     -178.075 
-0.000186166      2.79571     -160.787 
0.000149901      4.29344     -158.694 
2.05213e-05     0.936376      109.983 
0.000281216      4.32074      178.939 
5.94495e-05      1.30108      135.000 
-0.000357504      3.76021      179.390 
-0.000242401      1.72186     -149.265 
0.000186157      3.02655     -172.405 
-9.45979e-05      2.98690     -159.624 
-0.000167472      3.15087     -146.915 
0.000184102      2.93721     -150.642 
-5.51193e-05     0.936376     -160.017 
0.000163609      1.27812     -159.864 
5.55134e-05      3.56202     -178.069 
-0.000271724      4.61736     -175.030 
-0.000109401      1.68000      180.000 
5.49838e-05      1.86118     -171.347 
0.000214810      3.88742      176.460 
7.15927e-05      1.32966      136.219 
-0.000106420      2.52127     -138.215 
3.52828e-05      2.37453     -147.381 
3.52444e-05      1.13137      171.870 
-3.49953e-05      3.84083      178.807 
-3.48190e-05      3.66191     -173.729 
5.19952e-05      1.97464     -173.019 
-1.72526e-05      2.03214      169.796 
1.72278e-05      3.04237     -155.120 
