! Center RA: 08 54 48.87493,  Dec: +20 06 30.64078 (2000.0)
! Tentative model.
! Flux (Jy) Radius (mas)  Theta (deg)  Major FWHM (mas)  Axial ratio   Phi (deg) T \
! Freq (Hz)     SpecIndex
 0.0324641     0.126491     -18.4349 
0.000672289     0.164924     -14.0362 
 0.0122099     0.400000     -36.8699 
-0.00673791     0.126491      161.565 
0.00323940     0.113137     -45.0000 
-0.0139279    0.0894427      153.435 
-0.00714427     0.501199     -61.3895 
-0.00186756      1.48216     -93.0941 
-0.00114446     0.520000     -67.3801 
-0.000479742    0.0894427      116.565 
-0.000289251      1.32242     -86.5318 
-0.000183940      1.28561     -84.6442 
-0.00115639      1.48486     -94.6355 
-0.00148951      1.28250     -86.4237 
-0.000643412    0.0800000      90.0000 
-0.000747568     0.815843     -78.6901 
7.97421e-05    0.0894427     -63.4349 
0.00555406    0.0894427     -26.5651 
-0.00607524    0.0565685      135.000 
-0.000256638     0.280000     -90.0000 
-0.000838040      1.60449     -85.7108 
-0.00106260     0.243310     -80.5377 
-0.000111977     0.505964     -71.5651 
-0.000878942     0.651153     -100.620 
-0.000109464      1.64049     -88.6028 
0.000361867      1.65747     -70.2532 
-0.00101373     0.533667     -77.0054 
-0.000813728     0.785875     -75.2564 
0.00117747      1.34164     -63.4349 
-0.000725097      1.68000     -90.0000 
-0.000309125      1.32061     -88.2643 
-0.00111142      1.34164     -116.565 
0.000701665      1.61988     -69.7751 
-0.00188053     0.362215     -6.34019 
-0.000589382      1.52840     -96.0090 
-0.000118125      1.02840     -76.5043 
-0.00158495     0.967471     -119.745 
-0.00110692     0.989545     -75.9638 
-0.000842631      1.12641     -83.8845 
-0.00123245      1.96367     -93.5035 
-7.24768e-05     0.252982     -71.5651 
0.000829049     0.620967     -14.9314 
-0.000934682     0.233238     -59.0362 
0.000876963     0.256125     -128.660 
9.42769e-05     0.200000     -126.870 
0.00100418     0.824621     -104.036 
0.000964940     0.282843      171.870 
0.000260519      1.60649     -71.1139 
0.000491641      1.16619     -120.964 
-0.000280335     0.393954     -113.962 
-0.00106789    0.0800000      180.000 
0.000110282     0.707672     -47.2906 
0.000467566      1.50944     -122.005 
-0.000183140      1.56818     -84.1440 
0.000360358     0.681175     -49.7636 
0.000317410     0.200000      143.130 
-0.000644247     0.215407     -68.1986 
0.000378537     0.160000      0.00000 
-0.000695717     0.512250     -51.3402 
0.000408556      1.59399     -72.4744 
0.000157124     0.395980     -45.0000 
-0.000394590      2.00878     -102.653 
0.000326675      1.18119     -118.301 
7.97312e-05     0.368782     -40.6013 
0.000161073     0.688186     -54.4623 
0.000572407     0.368782     -49.3987 
-7.67291e-05      1.68048     -88.6361 
-0.000127961      1.28062     -88.2101 
-5.63414e-05     0.291204     -15.9454 
0.000139047      1.17644     -107.819 
0.000158814     0.776660     -55.4915 
0.000325688     0.169706      135.000 
0.000238831      1.48862     -120.700 
-0.000271494     0.322490     -7.12502 
5.12985e-05      1.47078     -112.380 
0.000116426     0.611882     -11.3099 
9.77611e-05     0.120000      0.00000 
8.11013e-05     0.809938     -57.0948 
