select I, 1, 4
! Flux (Jy) Radius (mas)  Theta (deg)  Major FWHM (mas)  Axial ratio   Phi (deg) T \
! Freq (Hz)     SpecIndex
   5.02819      0.00000      0.00000 
  0.131100    0.0200000     -180.000 
  0.223932    0.0447214     -153.435 
  0.303699     0.438634     -155.772 
  0.171748     0.196977     -156.038 
  0.174305    0.0447214      26.5651 
  0.168696     0.831865     -152.819 
  0.216104     0.178885     -153.435 
 0.0847474     0.858836     -152.241 
  0.154410     0.483322     -155.556 
 0.0781190    0.0632456      18.4349 
 0.0743383     0.733485     -154.134 
  0.200904    0.0894427      26.5651 
  0.234373     0.885889     -151.699 
 0.0647685     0.662118     -154.983 
  0.112589     0.493964     -158.629 
  0.111901     0.913017     -151.189 
  0.204929     0.107703      21.8014 
 0.0567321     0.706824     -154.885 
 0.0552207     0.161245     -150.255 
 0.0971090     0.724983     -155.556 
 0.0499559     0.144222     -146.310 
  0.158218     0.905539     -149.470 
 0.0894927     0.487032     -160.821 
 0.0878518     0.922822     -150.101 
 0.0442578     0.128062     -141.340 
  0.115913     0.126491      18.4349 
 0.0410244     0.698570     -156.371 
 0.0402919     0.113137     -135.000 
 0.0726637     0.716938     -157.011 
 0.0371998     0.480833     -163.072 
 0.0368368     0.100000     -126.870 
 0.0338870    0.0894427     -116.565 
 0.0332424     0.456070     -164.745 
 0.0325516     0.145602      15.9454 
 0.0316539     0.305941     -168.690 
 0.0313577     0.950158     -149.657 
 0.0588576     0.735391     -157.620 
 0.0587856     0.141421      8.13010 
 0.0295966     0.500000     -163.740 
 0.0295048    0.0824621     -104.036 
 0.0558964     0.932952     -149.036 
 0.0273146     0.325576     -169.380 
 0.0265867    0.0800000     -90.0000 
 0.0260109     0.544059     -162.897 
 0.0465911     0.164924      14.0362 
 0.0456034     0.780000     -157.380 
 0.0249323      1.00499     -148.841 
 0.0245853     0.101980     -101.310 
 0.0450305     0.519230     -164.358 
 0.0463355     0.161245      7.12502 
 0.0233845     0.878180     -149.931 
 0.0401431     0.322490     -172.875 
 0.0224788      1.03247     -148.465 
 0.0221839     0.753923     -158.199 
 0.0601487     0.100000     -90.0000 
 0.0397648      1.06000     -148.109 
 0.0198391     0.860930     -149.265 
 0.0194393     0.345254     -169.992 
 0.0368665     0.184391      12.5288 
 0.0184748     0.563205     -163.496 
 0.0329203     0.728011     -159.075 
 0.0169854      1.07703     -148.671 
 0.0313841     0.181108      6.34019 
 0.0310990     0.538516     -164.932 
 0.0803658     0.101980     -78.6901 
 0.0409578     0.101980      78.6901 
 0.0155890      1.13649     -151.631 
 0.0145242      1.07070     -147.200 
 0.0142444     0.809938     -147.095 
 0.0138475     0.364966     -170.538 
 0.0428527     0.353836     -132.709 
 0.0136216     0.843090     -157.694 
 0.0133909      1.18962     -153.004 
 0.0526636     0.203961      11.3099 
 0.0325444     0.702282     -160.017 
 0.0126455      1.31529     -151.876 
 0.0122781     0.820975     -145.923 
 0.0121018     0.632456     -161.565 
 0.0118895      1.27028     -146.560 
 0.0323379      1.18068     -153.869 
 0.0285341     0.342345     -173.290 
 0.0110978      1.28141     -145.814 
 0.0105680     0.776660     -145.491 
 0.0103453      1.35070     -152.676 
 0.0719903     0.121655      80.5377 
 0.0100513     0.582409     -164.055 
 0.0190354      1.29275     -145.081 
0.00932720     0.895545     -156.297 
 0.0585614     0.107703     -68.1986 
 0.0244141      1.36850     -153.060 
 0.0227549     0.744043     -143.746 
0.00850948      1.00439     -144.728 
0.00821607     0.557853     -165.466 
0.00797374      1.15395     -154.323 
 0.0143873      1.30430     -144.360 
 0.0498906     0.223607      10.3048 
 0.0145198     0.721110     -160.560 
 0.0200005      1.59762     -145.713 
 0.0119836     0.988130     -144.058 
 0.0271230      1.38636     -153.435 
0.00646723     0.601664     -164.578 
 0.0218696      1.62542     -145.528 
0.00624446      1.19867     -154.290 
 0.0119619     0.384708     -171.027 
0.00608425     0.438634     -136.848 
 0.0108030      1.31605     -143.653 
 0.0100503     0.695701     -161.565 
0.00823684     0.728011     -142.815 
0.00924675      1.17201     -154.747 
0.00522428     0.466905     -136.736 
0.00515948     0.533667     -167.005 
0.00487983     0.906201     -157.964 
 0.0145571     0.577235     -165.964 
0.00462447     0.668431     -141.072 
 0.0349771      1.38622     -136.169 
0.00430065     0.972008     -143.366 
0.00420586      1.68630     -146.121 
0.00529468     0.404475     -171.469 
0.00408880     0.932309     -157.286 
0.00765747     0.880909     -129.472 
 0.0152069      1.40428     -153.800 
 0.0100916      1.34402     -143.471 
 0.0210321     0.116619     -59.0362 
0.00391940      1.55666     -137.083 
 0.0303293     0.362215     -173.660 
0.00368533     0.538145     -138.013 
 0.0156103      1.92852     -130.795 
0.00687481      1.73066     -146.310 
0.00660511      1.57035     -136.548 
0.00349153      1.85311     -124.891 
0.00824548     0.924770     -158.429 
 0.0159801     0.714703     -162.072 
0.00627088      1.96957     -147.440 
0.00631261      1.85828     -124.032 
0.00326427     0.712180     -141.843 
0.00321057     0.868332     -128.454 
 0.0126554     0.243310      9.46232 
0.00535295      1.50904     -145.257 
 0.0156601     0.288444     -123.690 
 0.0156607      1.43108     -153.435 
0.00292255      1.84174     -124.380 
0.00822598     0.840238     -128.234 
0.00625327      1.59862     -136.521 
 0.0118438      1.99720     -147.265 
0.00976290      1.84716     -123.518 
 0.0174810     0.596657     -166.430 
0.00255434      1.19013     -155.158 
0.00490015      1.74734     -146.674 
0.00249661      1.02956     -114.075 
0.00239284     0.652993     -117.350 
0.00758614      1.56064     -120.838 
0.00651191      1.94165     -131.241 
0.00875380     0.566392     -137.862 
0.00915369      2.05300     -125.083 
 0.0187027     0.553173     -167.471 
 0.0182079      1.02157     -113.051 
0.00576309     0.699714     -120.964 
0.00555190      1.56780     -119.836 
0.00773264      1.20830     -155.556 
0.00809145      1.58493     -137.045 
0.00207780     0.475395     -104.621 
0.00374237      1.81373     -138.576 
0.00511769      1.55048     -120.203 
0.00195125     0.800000     -126.870 
0.00195275      2.04000     -118.072 
0.00191246      1.44900     -153.789 
 0.0161955     0.470744     -102.265 
0.00804308      1.82571     -114.600 
0.00782914      1.92666     -131.634 
0.00450738      2.18833     -120.784 
0.00589516      2.01405     -147.572 
0.00180195      2.19208     -134.630 
 0.0161720     0.128062     -38.6598 
0.00177278      1.32801     -142.958 
0.00976836     0.247386      14.0362 
0.00175026      2.07663     -118.787 
 0.0182247     0.950789     -157.751 
 0.0174663     0.382099     -173.991 
0.00346487      2.06456     -125.538 
 0.0350667     0.126491      71.5651 
 0.0129411      2.21576     -120.964 
0.00565501      2.20617     -135.000 
0.00268427      1.67260     -153.741 
0.00468419      1.84196     -138.521 
0.00703049      1.69941     -153.435 
0.00530197      2.06708     -118.301 
0.00864565      1.23483     -155.095 
0.00631443      1.85699     -138.930 
0.00136514     0.689638     -119.539 
0.00966258      1.81747     -114.027 
0.00233554      2.36381     -122.211 
0.00742109     0.340588     -176.634 
0.00349323      2.37453     -122.619 
0.00394304      1.94000     -132.075 
0.00389436      1.28016     -118.968 
0.00376666      2.26883     -146.870 
0.00472442      2.22036     -135.365 
0.00396149      1.04785     -113.629 
0.00259649      1.37186     -135.591 
 0.0122486      2.40217     -122.764 
0.000990112      2.28561     -147.144 
0.000984859     0.788162     -144.293 
0.000974818     0.912140     -127.875 
0.00571174      1.99459     -153.178 
-0.0211102     0.620000     -180.000 
0.000933300     0.976934     -157.109 
0.00440969      2.51984     -137.573 
0.00469087      1.29769     -118.540 
-0.0254979     0.384708     -152.103 
0.000838306     0.984886     -156.038 
-0.0411542    0.0600000     -180.000 
0.00224792      2.04353     -139.764 
0.000821233      1.69056     -154.041 
0.000813868     0.572713     -167.905 
0.00147453      1.32439     -141.746 
-0.0219358     0.233238     -59.0362 
0.00481872      1.97677     -152.916 
 0.0325184     0.113137     -45.0000 
0.00237822      1.57493     -107.745 
0.00180446      1.30874     -141.203 
0.00117801      2.03066     -117.575 
0.00732427     0.447214     -100.305 
0.00940839      3.13292     -141.740 
0.00117477      1.92520     -132.474 
0.00173990     0.958541     -156.644 
0.00239878     0.940213     -128.089 
-0.0130552     0.521536     -85.6013 
-0.00106919     0.708802     -106.390 
0.00356992     0.228035      15.2551 
-0.0105983     0.345254     -10.0080 
-0.000544260     0.980612     -168.232 
0.00156236     0.134164      63.4349 
-0.0105705     0.233238      120.964 
-0.00964375     0.961041     -167.989 
0.00295048      2.79206     -131.225 
0.000502655      2.23464     -135.725 
0.00177907      1.58114     -108.435 
0.00303064      1.95898     -152.650 
0.000482795      2.05883     -140.123 
0.000851779      1.35794     -136.193 
0.000910392      1.65469     -153.435 
0.00133874      1.21672     -154.699 
-0.00132926      2.83210     -143.616 
-0.00610458     0.620323     -178.152 
0.00128461      1.93794     -133.746 
0.000453513      1.58152     -122.082 
0.000441001      2.02148     -117.072 
0.00179049      2.43655     -144.353 
-0.00243603      1.95387     -157.109 
-0.000827766     0.740000     -108.925 
-0.00265682    0.0400000     -180.000 
0.00117801      2.39140     -122.361 
0.00219779      2.53464     -137.878 
 0.0108955     0.444072     -97.7652 
0.00115931      1.68155     -153.130 
-0.000414203      2.56008     -134.050 
-0.00219677      3.42374     -140.452 
0.00434978      1.24338     -154.259 
0.000766246     0.551725     -136.469 
-0.000401354      2.54621     -133.727 
-0.00194483      2.81603     -143.374 
-0.000381522      2.53180     -134.040 
0.00236384      1.95161     -135.000 
-0.00638172     0.349285     -103.241 
0.00410459      1.94124     -152.379 
-0.00381159      2.51794     -133.713 
-0.000722429      2.06155     -157.166 
0.000958844      2.24900     -136.081 
0.000363880      1.59223     -122.692 
0.00181398      1.56869     -109.359 
-0.00430668     0.216333     -56.3099 
0.000349792     0.928009     -127.117 
-0.00280884      3.16891     -144.504 
-0.00548826     0.216333      123.690 
-0.00100272      1.76782     -158.078 
-0.00159099      2.04313     -156.949 
0.00180118     0.208806      16.6992 
0.00148789      1.66373     -152.819 
0.00145311      2.77892     -130.914 
0.000317189      1.01390     -112.011 
0.000317453     0.565685     -135.000 
-0.000896324      3.23932     -136.251 
-0.000897306      1.57099     -158.334 
0.000309492      1.34952     -140.412 
0.000590599     0.944034     -126.384 
0.000858656      2.75289     -139.715 
-0.00174257     0.342345     -6.70984 
-0.00114445      1.44250     -106.928 
-0.00111918      1.96173     -156.571 
-0.000828347      3.25380     -136.494 
0.000561839      2.24321     -121.139 
-0.000567100      1.74929     -157.834 
0.000824700      1.96581     -135.412 
0.000276711      1.30736     -119.310 
-0.000275759      3.02688     -129.369 
0.000276006      2.01246     -116.565 
-0.000273742      3.15265     -144.293 
-0.000537773      1.57848     -157.659 
-0.000538138      2.57938     -123.936 
-0.000271792     0.340588     -3.36646 
0.000267971      2.56289     -137.847 
0.000265387     0.537401     -135.000 
0.000264505      3.48632     -138.721 
