! Center RA: 04 18 21.28000,  Dec: +38 01 35.76000 (2000.0)
! Tentative model.
! Flux (Jy) Radius (mas)  Theta (deg)  Major FWHM (mas)  Axial ratio   Phi (deg) T \
! Freq (Hz)     SpecIndex
0.00334729      1.47567      57.1715 
-0.00142593     0.377359      57.9946 
-0.000205342     0.357771      63.4349 
-0.00134746      8.26946      65.4184 
-0.000298790     0.160000      0.00000 
-0.000384685      7.57448      66.0068 
-0.000255415     0.432666      56.3099 
-0.000897502      2.53140      58.5704 
-0.000345053     0.126491     -161.565 
-0.000827222      2.66563      64.2040 
-0.000610257     0.203961      11.3099 
0.000539981      4.88623      65.3231 
-0.000936871      1.90830      56.9761 
-0.000248669      1.83521      73.5400 
-0.000478013     0.341760     -20.5560 
0.000352773      1.09179      61.5571 
8.34021e-05      4.85848      67.2350 
0.000738259      4.42556      60.1909 
0.000423501      5.25235      67.1452 
0.000532133     0.626099      63.4349 
-0.000543242     0.565685      45.0000 
-0.000102163      1.87830      63.4349 
-0.000198333      7.61104      66.1292 
-0.000734257      4.26052      65.6006 
-0.000191578      4.08000      61.9275 
-0.000894157      3.00746      76.1486 
-2.70241e-05      1.91416      63.9704 
0.000634365      1.32966      43.7811 
-0.000506378     0.304631      66.8014 
-0.000373806      4.09898      61.4342 
9.54506e-05      4.84314      67.6713 
6.57357e-05      5.23695      67.5485 
-9.07876e-05      7.55831      66.2838 
-0.000631122      1.86290      75.0686 
-0.000500562      8.08633      64.1955 
-0.000516027      1.89652      62.3540 
0.000494765      3.78312      56.6460 
0.000737335     0.555698      120.256 
0.000146249      3.28390      55.9228 
-0.000302724      8.10511      64.5731 
-8.24852e-05     0.164924     -165.964 
-0.000227881      7.73532      60.9166 
0.000396872      3.31711      56.3099 
9.57476e-05      4.82808      68.1104 
-0.000623368      8.76721      62.2658 
0.000401316      1.53101      56.7251 
-0.000135170      2.55249      57.8043 
0.000429729      2.46739      70.0963 
0.000107880      5.24412      68.5232 
0.000287404      3.32866      69.6051 
0.000380784      5.10529      66.4477 
3.84176e-05      1.02528      69.4440 
0.000166263      1.11140      59.7436 
-0.000499302     0.747262      74.4759 
-0.000149795      7.52170      66.1613 
-0.000260325      2.78568      68.9625 
-0.000264955      2.49736      58.0919 
3.67931e-05      5.08944      66.8605 
0.000283620      2.83210      53.6156 
0.000155835      7.45987      62.8854 
6.87167e-05      1.25603      52.7652 
-0.000144060      4.29698      65.8209 
0.000506601      8.97517      60.3501 
0.000161889      2.78568      57.9074 
-0.000465509      4.04475      61.6609 
-0.000330182     0.622254      45.0000 
0.000100267      1.44222      56.3099 
0.000213740      1.01193      71.5651 
0.000284372      2.25211      56.5922 
-7.91364e-05      7.78974      60.8025 
0.000216999      4.90306      64.8984 
-0.000206825     0.322490      60.2551 
0.000283288     0.644981      60.2551 
0.000492967      7.74576      63.3026 
4.81213e-05      3.31494      70.2532 
0.000520887      8.96330      64.3498 
0.000229702      2.07692      74.3578 
0.000335446      3.35261      70.4841 
0.000400534      7.44172      63.1595 
0.000217205      1.23223      54.2461 
0.000130392      4.81332      68.5523 
-0.000266144      3.25969      60.6039 
-0.000321955      4.54876      55.7510 
-0.000186696      7.71596      61.1762 
-0.000264936     0.820731      43.0251 
0.000104174      3.31421      66.5290 
0.000222547      2.76463      58.6097 
-2.85794e-05      4.38634      65.7723 
-0.000209409      7.97295      60.2195 
-0.000124951     0.164924      14.0362 
1.42164e-05      5.27394      67.7144 
0.000142658      3.84708      62.1027 
0.000205579      4.44558      59.7436 
3.99648e-05      4.10502      56.9293 
2.78801e-05      4.83206      53.4147 
-0.000227712      4.43928      65.5133 
-0.000205184      4.92130      70.5341 
0.000252408      4.80833      53.7974 
0.000118596      4.04969      57.0948 
-0.000152433      7.64764      66.2505 
-5.82595e-05      9.21954      61.2110 
0.000153500      2.04313      66.9487 
-0.000198914      5.22410      71.7038 
6.22649e-05      3.00719      61.3895 
-9.41326e-05      9.22345      60.6558 
-0.000127099      1.87489      56.3099 
0.000184742      2.51873      69.5505 
-0.000174250      2.62968      63.8247 
-0.000172115     0.268328      63.4349 
-1.25122e-05     0.993579      49.8991 
9.16847e-05      8.48000      58.1092 
-0.000101991      9.24035      58.9937 
-0.000101620      3.56022      62.5713 
0.000135896      7.85875      67.8737 
-6.78265e-05      8.12424      64.9490 
-7.83377e-05      1.01980      48.1798 
7.79534e-05      5.22961      68.9310 
-2.38524e-05      2.82305      69.2539 
0.000167319     0.699714      59.0362 
-8.94780e-05      4.97610      53.4986 
-6.67878e-05      8.30585      65.5332 
5.53940e-05      4.80000      53.1301 
7.78943e-05      3.02655      60.7247 
4.40143e-05      1.03769      62.4472 
3.39674e-05      3.82852      62.6318 
-6.58739e-05      2.83746      68.4986 
2.19391e-05      1.00000      73.7398 
-7.60554e-05      5.56345      58.8243 
2.20093e-05      8.12778      61.1645 
3.28540e-05      8.48038      62.4680 
3.22946e-05      1.03846      74.3578 
-4.33939e-05     0.698570      76.7595 
3.21396e-05      3.26166      66.8937 
3.22862e-05      1.38679      56.7683 
4.26111e-05      1.46697      78.9965 
4.24966e-05      3.94725      70.4633 
1.09055e-05      4.79883      68.9968 
3.19875e-05      3.79305      62.3540 
3.19523e-05      4.58537      66.3420 
2.12569e-05      5.20384      55.3327 
-2.08763e-05      1.35351      71.0296 
1.04544e-05      8.46196      62.7082 
-1.04351e-05      8.43469      60.7607 
1.04084e-05      4.86687      64.6986 
-1.03656e-05      4.06389      61.1645 
1.03713e-05      5.14198      66.6258 
-1.03469e-05      3.01569      68.1986 
