! Center RA: 17 51 32.81857,  Dec: +09 39 00.72829 (2000.0)
! Tentative model.
! Flux (Jy) Radius (mas)  Theta (deg)  Major FWHM (mas)  Axial ratio   Phi (deg) T \
! Freq (Hz)     SpecIndex
 0.0896661    0.0400000      0.00000 
 0.0103547    0.0800000      0.00000 
0.00623573    0.0400000     -90.0000 
0.00711417     0.164924      14.0362 
0.00991717    0.0565685     -135.000 
0.00966776     0.203961      11.3099 
0.00158596     0.215407      21.8014 
0.00167274     0.252982      18.4349 
0.00100870      1.17098      7.85331 
0.00542053    0.0894427     -153.435 
0.000553688      1.13772      10.1247 
0.00257464     0.243310      9.46232 
0.00194595      1.00080      2.29061 
0.000484054      1.07703      15.0685 
0.00180995      1.21062      7.59464 
0.00171428      1.08812      17.1027 
0.00119670     0.737564      12.5288 
-0.00375961     0.312410      50.1944 
-0.00208251     0.169706      135.000 
0.00169903     0.923472      4.96974 
-0.00339954     0.144222      146.310 
0.000737121     0.808950      8.53077 
0.000739532      1.82603      28.8108 
0.000170114      1.17712      9.78241 
0.000330448      1.25028      7.35238 
4.37965e-05     0.126491     -161.565 
0.000504237      2.11092      27.0506 
0.000715046    0.0400000      180.000 
-0.000685409      1.72743      42.1844 
0.00129605    0.0800000      180.000 
-0.000176994      2.60768      4.39871 
0.000101883      1.12641      16.5044 
0.00106180     0.520000      0.00000 
-0.000912935      1.13842     -18.4349 
0.000685861     0.268328     -153.435 
-0.000343011      2.56780      4.46716 
-0.000351559     0.344093      54.4623 
0.000653374      2.51746      17.5713 
0.000315057      2.45080      26.1468 
8.79080e-05      1.77178      28.3008 
0.000899732      2.55812      9.90418 
0.000152188      1.28996      7.12502 
-0.00274351     0.113137      135.000 
0.00144023     0.120000      180.000 
-0.000895371     0.144222     -56.3099 
-0.00107361      2.78883      8.24632 
0.000528359      1.46697     -11.0035 
-0.000937273     0.501199     -28.6105 
-0.000800356      2.08691      12.1715 
0.000749765      1.28250     -3.57633 
0.000201325      1.10055      19.0935 
0.000122864      1.79109      29.4275 
-0.000365781     0.670522     -17.3540 
-0.000158277      1.92042      1.19349 
-0.000269395      1.85559     -7.43141 
-6.48531e-05      2.52792      4.53777 
0.000938007     0.715542     -26.5651 
8.52741e-05      1.75636      30.0686 
-0.00109149     0.126491     -71.5651 
-4.21347e-05      2.72734      4.20536 
-0.000161233      2.18833      30.7841 
0.000180772     0.160000      180.000 
0.000231483      2.43343      25.3014 
0.000204591      2.14663      26.5651 
0.000174898      1.04077      2.20260 
-0.000211915      1.91039      19.5731 
0.000133017      1.72186      30.7355 
0.000127502      1.32966      6.91123 
-0.000139922      2.76724      4.14462 
-0.000175484      1.74951      10.5392 
0.000310740      0.00000      0.00000 
-5.58800e-05      2.48805      4.61065 
0.000407945     0.200000      180.000 
-0.000309818     0.708802     -16.3895 
-0.000140170      1.87275      19.9831 
-0.000307690      2.22279      30.2564 
0.000203821      1.03769      27.5528 
0.000423587      2.59754      9.75243 
0.000169441      2.47935      17.8503 
-0.000253573      1.82165     -8.84182 
6.74456e-05     0.848528      8.13010 
0.000165384      1.68760      31.4296 
-0.000197167      1.12641     -16.5044 
-5.03434e-05      2.44818      4.68590 
9.71661e-05      1.28561     -5.35582 
-8.05985e-05      1.70082      41.1859 
4.73086e-05      1.36938      6.70984 
0.000142240     0.240000      180.000 
-3.13598e-05      2.40832      4.76364 
1.53839e-05     0.680000     -28.0725 
