! Center RA: 04 18 21.28000,  Dec: +38 01 35.76000 (2000.0)
! Tentative model.
! Flux (Jy) Radius (mas)  Theta (deg)  Major FWHM (mas)  Axial ratio   Phi (deg) T \
! Freq (Hz)     SpecIndex
0.00209570     0.164924     -14.0362 
0.00177881     0.466476      59.0362 
0.000251670     0.357771      63.4349 
-0.00155196      2.95703      66.9032 
0.00150221     0.322490      60.2551 
0.00131512     0.144222     -33.6901 
0.000928252     0.521536      57.5288 
-0.00120994      1.72325      68.1986 
0.000500501     0.291204      15.9454 
-0.000211405      3.00958      66.5014 
-0.000471228      1.76045      68.6821 
-0.000929427      4.62082      69.2118 
-0.000260922      8.34343      55.5481 
-0.000322819      3.13739      70.6410 
0.000322418      4.61511      56.3099 
-0.000451283      4.99103      63.8457 
-0.000313790      1.92333      73.0725 
0.000545524      4.88016      52.6605 
-0.000179772      8.31048      55.3921 
0.000194145      4.59304      56.7251 
-0.000504709      2.22171      76.4641 
0.000919349      4.13415      61.6992 
-0.000586090      5.12625      67.0362 
-0.000898259      8.26801      57.8477 
-0.000140900      4.65824      69.3864 
0.000834572      2.86440      54.0903 
0.000216711      1.58644      56.3099 
-0.000321080      2.25211      56.5922 
-0.000380365      8.33326      55.1657 
0.000226485      2.02148      62.9279 
-0.000477962      3.32866      69.6051 
0.000108178     0.544059      53.9726 
-0.000667050      2.28561      57.1443 
-0.000589948      3.85019      60.7719 
0.000433256      8.23310      61.5673 
0.000146002      1.56461      57.5288 
0.000501513      1.52840      47.1211 
0.000343261      5.37208      58.0851 
0.000326670      3.64088      54.3891 
0.000920140      2.05718      63.4349 
-0.000143595      5.05601      59.5804 
-0.000116587      8.23417      57.6996 
-0.000490343      4.92666      60.3128 
0.000600385      5.27651      70.0540 
3.84671e-05      1.96977      60.8324 
-0.000264875      8.65083      66.2796 
0.000111199      1.54350      58.7816 
-0.000231679      1.29120      73.8108 
9.68109e-05     0.568507      50.7106 
0.000274518      1.93494      60.2551 
0.000528108      8.69805      56.8215 
9.32028e-05      3.48528      58.1340 
-0.000130279      2.97294      66.1941 
0.000434788      2.48677      64.2593 
-0.000164651      1.93536      71.9395 
0.000114497     0.341760      20.5560 
-0.000251466      8.63046      65.9297 
0.000160167      1.52315      60.0685 
-1.71541e-05      4.97353      64.2593 
0.000202821      3.59555      57.7244 
-0.000194106      4.67059      61.8986 
0.000379389      8.80473      61.8050 
0.000491057      5.39333      57.7244 
3.22352e-05      3.32962      61.2797 
0.000179373      8.28734      61.4558 
-0.000490075     0.961665      73.0725 
-0.000186222      1.23223      76.8660 
-0.000294309      1.25539      59.3493 
0.000210538      8.50910      56.3099 
0.000155561      4.34990      65.5560 
-0.000278093      8.89989      57.6671 
-0.000269895      5.16976      68.1986 
5.80268e-05      3.31059      61.8868 
0.000147253      1.53101      56.7251 
0.000264310     0.526118      98.7462 
0.000174873     0.379473      18.4349 
-0.000165096      5.07638      59.1911 
0.000248608      5.05917      56.9382 
0.000146953      3.34903      60.6795 
0.000184286      4.55509      59.3814 
-0.000163205      2.23141      75.4655 
-5.18401e-05      8.36612      55.3222 
0.000187287      3.41526      71.5651 
8.63186e-05      4.27401      58.3925 
0.000203552      1.84043      47.6425 
0.000175057      4.06133      62.4254 
-4.07806e-05      1.77674      58.8150 
0.000357957      1.91541      61.2940 
0.000130806      8.65813      58.2191 
-0.000130702      2.93639      65.8790 
0.000253132      2.63211      73.2174 
-0.000115082      4.63534      61.6658 
-0.000213016      3.68456      69.0071 
-0.000235159      3.34281      68.9625 
0.000233727      1.48862      59.3003 
8.38496e-05      3.65075      57.5288 
-0.000281594      2.45601      59.6764 
0.000327395     0.923472      85.0303 
-0.000223335      9.06201      58.9061 
0.000256662      4.70744      65.3949 
-0.000255845      1.83216      53.8807 
-7.09662e-05      4.93753      64.0577 
-0.000220261      2.86775      59.8586 
0.000113917      3.89667      54.1888 
-0.000126637      8.36230      58.8952 
-0.000160102      3.00746      76.1486 
0.000102568     0.304631      66.8014 
6.95283e-05      8.19795      61.4342 
0.000134230      4.33350      66.0375 
9.00812e-05      3.76808      52.7652 
0.000112320      3.15087      61.1573 
-9.16740e-05      8.63481      66.5226 
2.38243e-05      3.15265      54.2933 
-0.000111429      7.66039      65.3084 
9.94739e-05      3.39600      74.9816 
6.68264e-05      8.14155      67.4668 
-9.91909e-05      7.32382      68.1986 
0.000121702      4.18836      61.4769 
0.000121620      1.13278      42.1376 
-9.90716e-05      3.86988      60.2551 
-0.000120377      4.61649      62.1027 
3.39245e-05    0.0894427     -153.435 
7.66428e-05      7.62155      67.4727 
1.15564e-05      3.56022      62.5713 
-3.29804e-05      2.29817      58.5232 
-4.42303e-05      1.89737      71.5651 
5.43395e-05      3.17616      53.7074 
-5.45314e-05      8.55551      61.5178 
6.44188e-05      2.75855      73.1416 
3.25797e-05      3.59578      62.8649 
6.44158e-05      8.16666      60.6728 
-3.19774e-05      8.39905      55.4774 
-5.30088e-05      5.15193      58.6548 
-1.08721e-05      3.09968      70.3959 
4.19279e-05      2.70703      55.8403 
2.10600e-05     0.126491     -161.565 
-3.13911e-05      4.85979      55.3943 
2.10429e-05      7.77154      69.5130 
3.12792e-05      8.48340      69.0013 
-2.07412e-05      8.30046      55.0080 
-2.08845e-05      8.60326      67.0113 
-2.08087e-05      8.59069      61.6450 
2.07022e-05      8.78590      62.0349 
-1.02670e-05      8.58771      67.2570 
-1.02273e-05      3.92122      71.5651 
1.02248e-05      7.42428      62.7447 
