! Center RA: 15 12 50.53293,  Dec: -09 05 59.82981 (2000.0)
! Tentative model.
! Flux (Jy) Radius (mas)  Theta (deg)  Major FWHM (mas)  Axial ratio   Phi (deg) T \
! Freq (Hz)     SpecIndex
0.00819191    0.0565685      45.0000 
0.00298934    0.0400000      90.0000 
0.00385635      0.00000      0.00000 
0.00125050      3.38892     -30.4998 
-0.00137274      1.84043     -47.6425 
-0.000800036      1.86762     -46.7357 
0.00158294      3.90302     -24.2010 
0.00221532     0.256125     -141.340 
-0.000187361      1.87019     -48.4682 
0.00103193      1.57632     -35.7067 
-0.00130881      1.82603     -61.1892 
0.000411333     0.843801     -31.4296 
-0.000573919      4.68956     -28.5325 
0.00119359      1.76590     -13.0919 
0.000611329      3.36880     -29.9136 
-0.000724405      4.36073     -37.9211 
0.000546611     0.961665     -16.9275 
-0.00106996      4.65446     -28.7677 
0.000667575     0.878180     -30.0686 
-0.000436752      2.12151     -44.2361 
0.00147264      1.56818     -37.7468 
0.00126702    0.0400000      180.000 
-0.000458132      2.24143     -34.8245 
-0.000217704      1.65215     -6.95296 
-0.00111246      1.61245     -7.12502 
-0.00103483      4.00500     -39.7323 
-0.000433176      2.15035     -43.4926 
0.000999273     0.923472     -17.6501 
0.000708131      3.40353     -29.5778 
0.000105801      3.59844     -24.2858 
0.000254758      2.01792     -13.7608 
0.000315991      1.80488     -12.8043 
-0.000437149      1.80710     -62.3005 
-0.000193998      4.56509     -28.8108 
0.000142775      1.84954     -21.5713 
-0.000238232      4.71966     -31.1303 
0.000407217      5.76056     -37.6656 
0.000728053      1.44997     -24.4440 
-0.000388273      1.81373     -48.5763 
0.000177329     0.913017     -28.8108 
-0.000299206      4.98092     -43.0475 
0.000445793      3.76977     -19.2040 
-0.000305950      4.61944     -29.0064 
-0.000165735      4.53819     -40.7108 
-0.000574742      4.75395     -30.8811 
-0.000446844      4.53008     -29.0546 
0.000347779      2.05679     -13.4957 
-0.000237638      4.53855     -34.9507 
0.000126029      1.88680     -21.1247 
-0.000109228      4.50582     -35.2420 
-0.000654720      1.35351     -34.1597 
-7.44012e-05      4.56806     -37.1709 
-0.000480391      4.95177     -43.3634 
-7.82698e-05      2.00000     -53.1301 
0.000153534     0.865332     -33.6901 
0.000435414      2.63697     -22.2856 
0.000149461      1.92416     -20.6955 
-0.000179199      1.72743     -5.31455 
0.000521549      1.55589     -43.9584 
0.000171565     0.200000     -143.130 
-0.000135789      2.02425     -52.2243 
-0.000104890      4.50795     -41.0424 
-0.000170177      1.78885     -63.4349 
0.000171510      4.11825     -29.0546 
-0.000170415      2.29713     -35.0738 
0.000239542     0.824621     -39.0939 
0.000168281      3.31494     -19.7468 
-0.000169870      3.97955     -39.2894 
0.000234803      2.04431     -30.5792 
0.000135473    0.0800000      180.000 
6.81374e-05      1.87275     -19.9831 
0.000167105      1.08074     -51.0090 
0.000166168      3.41901     -28.6640 
-0.000199573      3.78502     -35.5377 
6.65253e-05      3.91959     -24.7343 
-9.90999e-05      1.76726     -5.19443 
-3.28202e-05      4.75209     -44.3179 
-3.21061e-05      4.80267     -29.9816 
