! Center RA: 16 42 58.80997,  Dec: +39 48 36.99402 (2000.0)
! Tentative model.
! Flux (Jy) Radius (mas)  Theta (deg)  Major FWHM (mas)  Axial ratio   Phi (deg) T \
! Freq (Hz)     SpecIndex
-0.0215618    0.0400000     -90.0000 
-0.00329293      0.00000      0.00000 
-0.00463781    0.0800000     -90.0000 
-0.0133288    0.0400000      90.0000 
-0.0113223     0.126491     -71.5651 
0.00799684      1.61988     -110.225 
-0.00772134     0.120000     -90.0000 
-0.00510391    0.0894427      116.565 
0.00349051     0.582409     -105.945 
0.00143146      1.63414     -111.541 
0.00102124      1.59700     -112.068 
0.00117834      2.00639     -85.4261 
0.000653385      2.00998     -84.2894 
0.00178310     0.557136     -111.038 
0.000784491      1.39714     -76.7595 
0.00115550      2.44818     -94.6859 
0.00133557      2.38160     -82.2782 
0.000759456      1.58240     -110.726 
-0.000790767      6.17518     -79.9275 
-0.00113446      5.28015     -77.7537 
-0.000451787      5.78176     -79.2342 
0.000414142     0.379473     -71.5651 
0.000422551     0.393954     -66.0375 
0.000844008      1.97018     -84.1737 
8.33898e-05      1.66373     -80.3112 
0.000117652      2.41197     -95.7106 
-0.000851036      7.97295     -66.6504 
0.000639630      1.61790     -81.4692 
0.000595827      6.80047     -90.6740 
-0.000576288      8.57578     -79.7908 
-0.000938818      8.41190     -71.1343 
-0.000547789      8.23738     -73.0609 
-0.000662395      7.71927     -78.3407 
-0.000690670    0.0800000      90.0000 
-0.000768283      7.01655     -80.4840 
-0.000735628      6.39250     -81.3629 
-0.000182673      3.99940     -98.0491 
0.000359417      6.76047     -90.6780 
3.78773e-05      1.40684     -75.1735 
0.000728581      1.37928     -73.1416 
0.000436109      8.23116     -82.4606 
0.000693229      4.93931     -65.0952 
-0.000352507      3.82413     -74.2192 
0.000137014     0.594643     -109.654 
-0.000589478      5.80262     -74.8142 
-0.000638484     0.835225     -106.699 
0.000313286     0.407922     -78.6901 
0.00107563      6.44199     -69.6522 
-0.000778624      6.24461     -87.7974 
0.000149122      2.04157     -87.7543 
-0.000281940      1.84391     -65.6589 
-0.000148360      5.61854     -77.2500 
-0.000300473      3.99400     -97.4809 
0.000656039      2.04039     -88.8767 
-0.000526695      5.51971     -69.2010 
-0.000864402      5.27181     -78.1785 
-0.000221985      6.39062     -73.2664 
-3.35631e-05      6.97711     -80.4297 
0.000555161      6.70021     -94.4512 
-0.00124270      2.03843     -105.945 
0.000124170      1.41421     -81.8699 
0.000683717      9.56393     -72.4744 
-0.000268322      6.62239     -79.9118 
-0.000333233      4.98141     -78.4194 
0.000704524      6.85682     -85.9858 
3.22071e-05      8.22601     -82.7368 
-0.000179472      6.58204     -78.0755 
-0.000512491      5.73508     -79.5522 
-0.000646745      5.37386     -100.724 
0.000308434      7.04284     -91.6273 
0.000371226      6.70343     -94.7920 
-0.000414004      7.46244     -77.3046 
-0.000364657      4.67607     -100.349 
-0.000421780      5.02060     -78.5110 
-6.07463e-05      6.39863     -81.0088 
0.000511293      7.27439     -66.6773 
0.000109671      2.38730     -81.3268 
0.000142850      2.21775     -97.2532 
-0.000404937      5.44940     -86.6335 
-0.000441115      6.27388     -81.1983 
-0.000140180      5.08488     -102.724 
-0.000675788      6.37922     -73.6105 
0.000926250      10.1171     -67.6938 
0.000310807      6.35094     -67.7965 
-0.000258018      1.13772     -100.125 
0.000188910      2.58519     -98.0047 
0.000156654      8.22105     -83.0133 
-0.000907337      7.33757     -70.5773 
0.000222918      4.89539     -67.4161 
-0.000218152      4.05739     -99.6480 
-0.000560801      5.07622     -102.284 
-0.000575455      2.98101     -78.3885 
0.000226452      5.75569     -96.3842 
9.43494e-05      2.56500     -86.4237 
-0.000134548      3.90118     -74.5388 
0.000615574      6.42620     -98.2310 
-0.000306750      6.58301     -79.8508 
-0.000708736      1.80754     -65.1363 
0.000198838      6.89962     -85.6777 
0.000709066     0.203961     -11.3099 
5.53049e-05      9.08502     -82.1553 
-0.000777720      10.2362     -65.0372 
2.78871e-05      2.20145     -92.0826 
-0.000822605      7.08463     -70.5420 
0.000187760      1.44886     -83.6598 
7.98694e-05      4.38215     -84.2374 
-0.000901251      5.74178     -67.9021 
-0.000230701      2.93394     -78.9965 
0.000274319      9.24658     -71.3299 
9.90633e-05      2.24036     -91.0230 
0.000166803      9.04000     -82.3719 
0.000279940      4.68700     -68.4710 
-0.000407620      8.92861     -74.4072 
-0.000605450      5.44235     -91.6847 
-0.000604971      7.68833     -77.9885 
0.000683060      8.70218     -75.8999 
0.000235830      4.24264     -81.8699 
0.000163077     0.401995     -84.2894 
4.88656e-05      9.07965     -82.4054 
0.000378724      1.46751     -107.447 
0.000775844      6.70403     -71.5651 
-0.000284763      3.79684     -73.4742 
-0.000118567      6.63807     -77.4712 
2.54006e-05      2.20036     -91.0416 
0.000818048      6.24013     -90.3673 
0.000152585      9.22536     -68.1063 
0.000121217      3.34903     -82.4506 
-0.000451787      4.27682     -97.5238 
-0.000505621      8.89008     -74.3379 
-0.000155783      5.17548     -94.4327 
6.87148e-05      9.23385     -71.5651 
0.000254975      2.22315     -98.2759 
0.000286979      4.33848     -84.7099 
-0.000511050      6.21044     -65.2506 
-0.000332708      5.03126     -96.3905 
0.000462962      7.92162     -69.9180 
-0.000149531      5.32721     -79.6182 
7.08116e-05      6.76106     -91.0170 
0.000255793      7.31114     -66.8014 
-0.000206507      3.93975     -74.6939 
6.98016e-05      1.93039     -84.0531 
-7.00576e-05      5.37624     -70.8910 
-0.000452778      8.84109     -79.0459 
2.41055e-05      7.95920     -70.0169 
0.000553725      3.82539     -68.5323 
-0.000438724     0.847585     -109.290 
0.000406408      7.40216     -73.0339 
-0.000790539      9.84033     -64.4766 
-0.000408360      5.40059     -90.8488 
0.000492281      8.96071     -82.3039 
0.000470807      8.23650     -82.1847 
-0.000819013      6.72761     -64.6538 
0.000357187      7.13123     -93.2155 
0.000514172      6.20194     -83.3333 
0.000177063      8.94400     -81.2538 
2.29921e-05      7.97295     -69.7467 
0.000287487      8.21628     -83.2902 
0.000721431      7.79333     -72.6811 
0.000176964      2.59106     -98.8807 
-0.000704873      3.95434     -97.5563 
-0.000502316      4.10463     -74.7449 
8.85500e-05      3.34401     -83.1300 
-0.000820797      5.67507     -99.3295 
0.000614886      1.84391     -114.341 
0.000301422      8.46810     -65.7352 
-0.000134023      6.21855     -94.4270 
-0.000121553      6.28624     -87.4471 
-0.000449651      9.19556     -64.2152 
-0.000356878      8.44976     -71.2220 
-0.000217689      1.64000     -102.680 
-4.34930e-05      6.96414     -88.0251 
0.000738467      4.08490     -92.8064 
0.000275919      5.58426     -95.3431 
0.000656349      5.77027     -82.4316 
0.000394878      7.21875     -85.8691 
0.000320536      5.58813     -95.7514 
-0.000241064      6.59042     -77.7352 
-0.000741543      7.00286     -88.3634 
0.000103130      3.33539     -84.4945 
-0.000331309      6.25843     -94.3987 
-0.000453085      6.20774     -80.3556 
0.000173827      1.78885     -100.305 
0.000231025      8.03233     -84.8572 
0.000125131      2.39366     -99.6197 
-0.000417080      8.81744     -78.4862 
-0.000358924      9.67471     -66.6148 
-0.000242699      6.69149     -78.6229 
0.000269568      2.32000     -90.0000 
0.000298150      2.36136     -79.2611 
-0.000323029      6.28458     -87.8114 
-7.82973e-05      1.82779     -66.8014 
-0.000261585      7.12045     -89.3563 
-0.000105057      4.82676     -99.5404 
0.000621195      4.26277     -71.3950 
-0.000178045      6.25549     -94.0334 
-7.42822e-05      5.28136     -88.6980 
0.000460873      1.02840     -76.5043 
-9.33319e-05      7.31333     -70.1775 
9.33727e-05      9.51227     -71.8698 
-3.77836e-05      5.65756     -77.3394 
0.000368955     0.572713     -114.775 
0.000491404      4.72424     -68.6490 
0.000174989      1.03846     -74.3578 
0.000259157     0.411825     -60.9454 
0.000786228      3.33179     -85.1792 
-0.000129042      4.82029     -99.0715 
-0.000364536      5.46875     -84.1226 
7.62955e-05      9.13437     -72.6759 
0.000106176     0.400000     -90.0000 
-3.75495e-05      5.97930     -61.2060 
-0.000186391      5.12390     -102.626 
-0.000395875      4.42773     -67.1412 
-0.000128546      4.77678     -94.8035 
-0.000436450      3.91203     -73.9741 
-7.02064e-05      4.95047     -77.8729 
-0.000144061      5.90931     -66.0375 
0.000832938      4.93040     -93.7213 
-7.29173e-05      8.11527     -73.9770 
-0.000816581      4.41470     -94.6774 
-0.000183819      4.92016     -90.4658 
3.66532e-05      9.19591     -71.4862 
0.000240005      1.48486     -85.3645 
6.94041e-05      3.80021     -89.3969 
8.00617e-05      1.20930     -124.216 
-5.49258e-05      6.21456     -79.9920 
0.000316021      9.12254     -72.9157 
-7.00863e-05      4.00899     -65.2249 
-0.000204100      5.32015     -80.0419 
-0.000225618      8.13211     -74.5966 
-0.000132969      4.87705     -97.0667 
-0.000373220      8.33422     -68.6071 
0.000144382      5.75138     -95.9881 
-0.000293171      5.32541     -71.1568 
-8.48208e-05      4.58118     -84.4885 
0.000190564      6.74329     -85.2364 
-5.16843e-05    0.0565685      45.0000 
5.14343e-05      9.10736     -71.5651 
0.000230609      7.11258     -84.5138 
-0.000125931      4.82012     -84.7625 
-0.000214661      5.81323     -74.4337 
-9.49867e-05      6.29679     -63.5977 
-0.000205419      3.77020     -72.7185 
-2.83698e-05      6.24628     -87.4308 
-0.000170521      1.63169     -101.310 
0.000257243      1.78213     -99.0395 
0.000555649     0.160000      180.000 
-0.000216589      6.26789     -81.5596 
3.26979e-05      9.20869     -71.2502 
-0.000345078      3.99239     -65.7461 
-0.000583112     0.808950     -81.4692 
0.000275555      2.22926     -99.2933 
-0.000354562      5.96121     -88.8465 
-0.000244032      7.98889     -66.3870 
-0.000291339      4.06428     -100.204 
6.74596e-05      8.74098     -75.9638 
-3.27875e-05      6.69149     -64.5072 
0.000198529      9.69561     -63.5407 
0.000212464      4.24396     -101.416 
0.000246839      7.17919     -82.6374 
-0.000174082      4.36568     -76.2184 
0.000214848      4.60000     -90.0000 
0.000259710      9.12009     -71.3267 
-0.000390337      4.37539     -75.7097 
-0.000219666      4.95903     -77.4211 
0.000288114      7.90342     -68.6294 
-0.000113999      8.12640     -73.7060 
4.72258e-05      6.31392     -67.6594 
0.000252970      7.90929     -77.4398 
0.000200560      8.95017     -81.0007 
7.53677e-05      4.61736     -94.9697 
-0.000200889      1.92333     -73.0725 
0.000126794      6.89672     -86.0091 
4.39744e-05      6.72107     -91.0230 
-3.14611e-05      6.08842     -86.9872 
0.000354266      4.40236     -61.8050 
0.000222713      3.84021     -89.4032 
0.000186920     0.215407     -21.8014 
0.000116386      10.1323     -67.4845 
-2.89652e-05      6.87092     -67.7650 
-0.000130840      5.07102     -96.3402 
0.000251260      2.64515     -110.353 
0.000299002      5.43294     -76.3730 
-0.000183114      1.28996     -97.1250 
0.000184944      7.04182     -91.3020 
0.000192156      2.35423     -80.2176 
1.55646e-05      1.42941     -107.928 
-0.000130604      7.32699     -87.4969 
-0.000190370      4.58519     -83.9910 
-0.000142258      5.53404     -68.8138 
0.000280178      1.32061     -125.134 
-7.17595e-05      7.02328     -80.1621 
0.000303470      4.28224     -81.9456 
-7.76980e-05      6.12640     -87.3805 
-1.51264e-05      4.09429     -75.2849 
2.89102e-05      9.00036     -82.3380 
0.000107984      9.65981     -63.4349 
0.000233522      8.45175     -65.9824 
-0.000336461      4.87229     -96.5999 
0.000286545      5.62793     -95.7106 
4.40178e-05      6.46579     -70.1077 
6.79464e-05      4.34235     -84.1844 
0.000100956      6.29883     -67.9959 
0.000162397      1.44222     -109.440 
1.48169e-05      8.25290     -65.6710 
9.63131e-05      7.22839     -84.9204 
6.38528e-05      9.28862     -69.8483 
-0.000149421      4.96000     -90.0000 
-0.000183614      4.32074     -88.9391 
-0.000106368      6.08644     -87.3632 
1.46512e-05      2.20000     -90.0000 
0.000157948      7.17607     -86.1647 
0.000157556      1.34104     -72.6460 
0.000169215      8.08297     -77.1329 
-0.000152302      7.64251     -81.5730 
0.000182952      8.55084     -67.1533 
-4.26379e-05      8.13575     -79.5188 
-0.000334685      3.18496     -78.4078 
-0.000184532      5.74247     -79.1597 
8.88584e-05      6.98249     -94.6001 
2.82971e-05      5.09886     -70.2857 
0.000355953      6.50341     -70.2276 
-6.79581e-05      4.92179     -82.5284 
0.000200310      8.62675     -74.6750 
-0.000223124      4.82477     -101.962 
-2.78740e-05      6.44608     -87.5104 
-7.73449e-05      6.21559     -94.0593 
0.000134053      1.62432     -80.0738 
-0.000257654      7.16045     -89.3599 
0.000286878      6.70021     -85.5488 
-0.000152608      7.38864     -70.3879 
-0.000214366      6.22729     -64.9164 
0.000146749      9.27491     -70.0802 
2.70949e-05      4.62100     -95.4638 
0.000233840     0.432666     -56.3099 
-1.38779e-05      4.62290     -80.5377 
-0.000132936      7.32885     -87.1844 
0.000260542      5.11249     -69.8637 
0.000154096      8.21170     -83.5673 
-6.08425e-05      5.57136     -68.9625 
3.89536e-05      4.58118     -95.5115 
-0.000226376      8.17508     -79.5698 
0.000253710      5.67958     -71.9479 
3.43611e-05      4.25206     -101.944 
-5.01070e-05      5.48715     -87.0750 
0.000140510      4.49800     -99.2110 
-0.000102087      2.44393     -68.8952 
4.73035e-05     0.401995     -95.7106 
-0.000141375      5.11531     -96.7360 
0.000153519      9.51697     -73.3930 
-0.000232007      9.70155     -67.4528 
-0.000308047     0.659697     -75.9638 
0.000162580      7.21598     -86.1859 
-9.80041e-05      6.40612     -87.4949 
-1.32461e-05     0.764199     -83.9910 
0.000109516      5.77567     -82.0382 
-0.000125881      6.72298     -79.0243 
0.000365640      9.39191     -63.9806 
-2.49568e-05      4.57699     -80.9493 
0.000109064      4.63810     -102.958 
0.000133663      6.24167     -83.3760 
5.02468e-05      4.77460     -81.3268 
-1.29245e-05      8.39905     -71.3925 
-7.41171e-05      1.62432     -99.9262 
0.000104658      6.23718     -83.7410 
0.000105763      2.16924     -67.2176 
-0.000107280      7.45547     -86.3086 
-0.000181551      4.87705     -82.9333 
8.91666e-05      2.20036     -88.9584 
0.000140769      5.25890     -75.0124 
0.000178183      7.68604     -83.7257 
-8.98661e-05      7.11607     -79.6375 
2.42280e-05      9.02299     -79.7860 
0.000139388      4.31129     -62.9595 
0.000210419      2.23607     -100.305 
-5.98911e-05      1.97342     -72.2996 
-0.000133036      8.67733     -77.7577 
-8.92306e-05      4.44000     -71.0754 
-0.000122329      5.30961     -96.0542 
-0.000133529      5.79351     -99.1372 
-0.000141222      5.28076     -79.9669 
8.89598e-05      8.77679     -60.5142 
2.23253e-05      2.40067     -100.561 
0.000108933      3.72086     -91.2320 
-6.65452e-05      5.96000     -69.9840 
-5.45543e-05      6.80388     -68.2611 
-0.000153910      4.96016     -90.4621 
-0.000132785      8.76256     -82.1288 
-0.000142122      8.12158     -74.8686 
9.90613e-05      7.15240     -84.5445 
-0.000119851      6.21134     -72.3818 
6.66110e-05      4.58519     -96.0090 
-0.000109779      9.54870     -66.5493 
-0.000227618      2.37857     -70.3462 
0.000130520      4.78080     -80.8529 
-0.000130947      5.42498     -84.4996 
3.32821e-05      7.27186     -84.6344 
0.000172835      4.45224     -98.7853 
-0.000215644      9.23342     -64.8781 
3.37284e-05      6.85414     -86.3194 
-8.67772e-05      10.2000     -64.9424 
-1.16394e-05      4.36165     -88.4235 
-0.000193633      2.13841     -82.4762 
-0.000128493      1.61790     -98.5308 
9.58642e-05      2.23786     -65.7256 
-7.37565e-05      9.63801     -66.5204 
1.14423e-05      2.92027     -89.2152 
-5.35102e-05      6.40450     -87.8524 
0.000137784      9.78464     -69.4165 
4.21503e-05      4.97562     -65.2892 
3.15392e-05     0.976524     -124.992 
0.000105330      6.15220     -77.2288 
0.000116574      6.24000     -90.0000 
-2.14191e-05      6.26163     -72.1438 
-3.23940e-05      3.96807     -75.4034 
0.000105489      8.95652     -80.7480 
-5.29077e-05      1.93536     -71.9395 
7.40293e-05      1.81593     -97.5946 
7.34722e-05      5.26938     -74.5923 
-0.000115007      5.72685     -68.2729 
5.24057e-05      2.96108     -88.4518 
0.000104305      4.59913     -103.069 
0.000114368     0.400000     -53.1301 
2.12906e-05      2.49159     -95.5275 
7.28838e-05      9.69619     -64.0692 
-0.000124578      2.44131     -108.138 
8.32085e-05      9.07260     -73.0830 
-6.23130e-05      7.41307     -86.5972 
-6.17794e-05      4.82012     -95.2375 
2.10955e-05      9.04964     -69.5625 
7.21507e-05      2.68328     -79.6952 
2.12347e-05      7.85875     -75.2564 
-1.06742e-05      7.29986     -70.4729 
5.12965e-05      6.84047     -90.6701 
4.14018e-05      6.85169     -86.6532 
-5.12560e-05      4.83322     -102.426 
7.11208e-05      4.00320     -87.7094 
3.06105e-05     0.411825     -119.055 
4.07123e-05      4.29325     -63.4349 
2.05193e-05      4.75714     -70.3462 
5.08136e-05      7.30173     -67.7906 
3.04323e-05      7.78152     -72.9622 
3.05281e-05      4.07372     -70.4976 
-1.03378e-05      4.40454     -87.3974 
3.04260e-05      5.73062     -82.3789 
3.02344e-05      7.49667     -80.7890 
-2.03233e-05      2.05679     -76.5043 
-4.02694e-05      2.76463     -86.6822 
1.02490e-05      2.92000     -90.0000 
3.01410e-05      7.89744     -75.3303 
2.00357e-05      9.41046     -64.3063 
-3.00633e-05      2.07577     -115.084 
-2.01287e-05      3.84749     -93.5763 
-1.99702e-05      7.28593     -71.7640 
-1.01163e-05      4.00679     -75.5476 
2.99499e-05      2.64273     -92.6026 
-1.00398e-05      5.34535     -95.5826 
-9.98259e-06      4.54542     -83.9382 
1.98408e-05      4.76151     -68.8243 
9.95845e-06      8.20731     -83.8448 
9.91641e-06      8.02885     -85.1415 
-9.88499e-06      5.46480     -84.5398 
-9.87628e-06      6.24436     -64.5840 
-9.88783e-06      5.33846     -70.7505 
-9.85632e-06      9.35222     -76.1421 
