! Center RA: 16 35 15.49298,  Dec: +38 08 04.50043 (2000.0)
! Established model.
! Flux (Jy) Radius (mas)  Theta (deg)  Major FWHM (mas)  Axial ratio   Phi (deg) T \
! Freq (Hz)     SpecIndex
   1.56771      0.00000      0.00000 
 0.0525391    0.0282843     -45.0000 
0.00490726    0.0565685     -45.0000 
0.00470448    0.0200000      90.0000 
0.00448043    0.0848528     -45.0000 
 0.0155641    0.0447214      116.565 
 0.0115434     0.100000     -53.1301 
 0.0212637     0.116619     -59.0362 
0.00894057    0.0632456      108.435 
 0.0156292    0.0721110      123.690 
 0.0123792     0.702282     -70.0169 
 0.0121355     0.144222     -56.3099 
0.00241531     0.286356     -65.2249 
0.00223076     0.313050     -63.4349 
0.00210118     0.411825     -60.9454 
0.00392381     0.728011     -69.0755 
0.00197060     0.709366     -68.4986 
0.00370332     0.429418     -62.2415 
0.00641769     0.278568     -68.9625 
0.00173718     0.746726     -69.6236 
 0.0188820    0.0894427      116.565 
0.00166062     0.672309     -67.2490 
0.00307051     0.784347     -70.6410 
0.00286345     0.447214     -63.4349 
0.00152563     0.680294     -65.6955 
0.00143213     0.438634     -65.7723 
0.00270840     0.662118     -64.9831 
0.00135751     0.796994     -72.4744 
0.00125749     0.803243     -71.1139 
0.00122043     0.277849     -59.7436 
0.00120149     0.814125     -62.1759 
0.00222417     0.652993     -62.6501 
0.00115192     0.280000     -90.0000 
0.00220472     0.791202     -73.8557 
0.00211339     0.456946     -66.8014 
0.00109798     0.876584     -55.2222 
0.00108246     0.312410     -50.1944 
0.00397679      1.09124     -48.7153 
0.00192231     0.280713     -94.0856 
0.00130643     0.833547     -59.7436 
0.00180210     0.353836     -47.2906 
0.000964253     0.810432     -74.2488 
0.000941629     0.655134     -58.7363 
0.000908072     0.726911     -82.0928 
0.000890345     0.468615     -50.1944 
0.00140995      1.00499     -58.8407 
0.000873289     0.646220     -68.1986 
0.000867832     0.909065     -50.3558 
0.00156540     0.854400     -73.6861 
0.000836502      1.10454     -47.9357 
0.000818693     0.660303     -54.8658 
0.00156217     0.302655     -97.5946 
0.00117114      1.01548     -57.8750 
0.000794556     0.724431     -83.6598 
0.000784662      1.01843     -70.4976 
0.000779060     0.481664     -48.3665 
0.00148774      1.11803     -47.1747 
0.000757271     0.632456     -71.5651 
0.000805764     0.921954     -49.3987 
0.00180443      1.03247     -58.4652 
0.00137165     0.353836     -42.7094 
0.000709410     0.644050     -53.8418 
0.00338273     0.107703     -68.1986 
0.00194739      1.03730     -70.8664 
0.00243553     0.722496     -85.2364 
0.00127835     0.495177     -46.6366 
0.00122185     0.305941     -101.310 
0.000673556      1.11732     -44.2748 
0.00212858     0.841190     -61.6070 
0.000658890     0.456070     -74.7449 
0.00387763     0.100000      126.870 
0.000645047      1.13701     -50.7106 
0.000631316      1.15603     -59.8863 
0.00167651     0.656049     -52.4314 
0.000613694      1.13278     -42.1376 
0.000608362     0.286356     -102.095 
0.000604577     0.620967     -75.0686 
0.000579879     0.906863     -48.5763 
0.000568172      1.16619     -59.0362 
0.000561818     0.368782     -40.6013 
0.000555867      1.14769     -48.5323 
0.00100327      1.14769     -41.4677 
0.000538993      1.12161     -68.0089 
0.000522671     0.495177     -43.3634 
0.000521214     0.986712     -72.2996 
0.000513366     0.451221     -77.1957 
0.000511190      1.14978     -49.9392 
0.000922931      1.13455     -40.7108 
0.000929132      1.11427     -68.9625 
0.000492772     0.356090     -38.1572 
0.00130692     0.291204     -105.945 
0.00130706      1.17661     -58.2011 
0.00162289     0.721110     -86.8202 
0.000724032     0.611882     -78.6901 
0.000866978     0.509117     -45.0000 
0.000831192     0.912140     -74.7449 
0.00208701     0.668431     -51.0725 
0.000437369      1.16276     -49.1849 
0.000761838     0.372022     -36.2538 
0.000416903     0.447214     -79.6952 
0.000411362      1.00578     -72.6460 
0.00254265     0.101980     -78.6901 
0.000402468      1.17796     -49.8208 
0.000400033     0.602993     -84.2894 
0.00132404     0.920217     -47.6425 
0.000391097     0.360555     -33.6901 
0.000741426      1.14018     -68.3852 
0.00183654      1.14978     -40.0608 
0.00145677     0.523450     -43.4518 
0.000967919     0.583095     -95.9061 
0.000353185     0.377359     -32.0054 
0.000348842     0.420000     -90.0000 
0.000346865      1.19097     -49.0856 
0.000341507     0.868332     -75.3236 
0.00109191     0.297321     -109.654 
0.000335150      1.18727     -57.3808 
0.000327740      1.02489     -72.9795 
0.000324528     0.116619      149.036 
0.000605199     0.367151     -29.3578 
0.000588747      1.20615     -49.7079 
0.000592306      1.15879     -68.7495 
0.000306823     0.965194     -34.0193 
0.00171443      1.20416     -57.8937 
0.000536831     0.420476     -92.7263 
0.000296136     0.931450     -75.0686 
0.000975324     0.740270     -88.4518 
0.000736443     0.981835     -33.3664 
0.00178675     0.145602      164.055 
0.000697229     0.823650     -60.9454 
0.00138033     0.509902     -41.8202 
0.00175339      1.37884     -66.0375 
0.000700447      1.00000     -73.7398 
0.000499732     0.384708     -27.8973 
0.000823838     0.585491     -97.8533 
0.000620920      1.17745     -69.1022 
0.000242545     0.848999     -74.9816 
0.000240179      1.16276     -40.8151 
0.000455846    0.0824621      104.036 
0.000421485      1.21918     -48.9909 
0.000864167     0.987927     -31.7595 
0.00242333      1.62542     -34.4722 
0.000956307     0.393954     -23.9625 
0.000547206     0.421900     -95.4403 
0.000206655      1.38708     -65.2826 
0.00264231      3.64005     -74.0546 
0.00155821      1.93205     -62.9044 
0.000198797      1.15256     -38.6598 
0.000667931    0.0800000      90.0000 
0.000627778     0.681175     -49.7636 
0.000533276      4.09956     -84.4007 
0.000751094     0.304631     -113.199 
0.000187171     0.926499     -76.2637 
-0.00296342     0.250599     -151.390 
0.000183126      1.20416     -41.6335 
0.000300901     0.613514     -70.9744 
0.000545027      3.92658     -77.9460 
0.000619038     0.639062     -110.136 
0.00193620      4.89612     -65.6335 
0.000341337     0.835225     -73.3008 
0.000338578      1.10454     -95.1944 
0.000740982      1.14403     -36.4692 
0.000600799     0.263059     -81.2538 
0.000863968      1.45602     -74.0546 
0.000943822     0.100000     -90.0000 
0.000167281     0.666033     -48.6522 
0.00145321      2.16315     -72.2351 
0.00126167      5.10850     -64.7392 
0.000909901      4.04678     -74.5214 
0.000559803      1.79622     -52.2369 
0.000160590     0.607289     -72.7585 
0.000895149      2.08010     -89.4491 
0.00133142      4.72017     -90.4855 
0.000158463      1.23240     -41.7108 
0.000564858      1.01922     -74.0546 
0.000515068      4.28266     -84.1030 
0.000606365      1.56818     -52.2532 
0.00153994      1.10653     -96.2258 
0.000635259     0.423792     -19.2900 
0.000943618     0.831865     -62.8189 
0.000681708      3.76351     -83.5926 
0.000148524      4.40454     -87.3974 
0.000148033     0.740000     -90.0000 
0.000370704      1.25172     -77.0740 
0.000240516      3.93451     -82.4054 
0.000144660      4.41475     -76.9081 
0.000269970      4.07774     -84.6529 
0.000610148      1.58417     -43.9770 
0.000274553      2.46812     -85.3520 
0.00116334      3.60694     -80.7466 
0.000305401      1.06921     -82.4762 
0.000385573      4.99223     -74.9059 
0.000601032      3.94370     -75.6114 
0.000384135     0.164924      165.964 
0.000428900      1.72186     -87.3370 
0.000259502      3.42987     -85.6525 
0.000619392      1.83172     -58.3925 
0.000534298      4.43423     -76.9666 
0.000690770     0.563205     -96.1155 
0.000133834      4.40550     -87.1376 
0.00100814      4.79437     -81.3629 
0.000257775      3.94411     -92.6158 
0.000333653     0.994786     -59.8265 
0.000130012     0.994585     -74.8459 
0.000250478      1.98252     -92.8913 
0.000767528      3.45080     -97.6605 
0.000782576      4.72271     -79.2611 
0.000223935      1.24740     -41.0995 
0.000338973    0.0824621      75.9638 
0.000641174      1.74103     -88.0251 
0.000126734     0.424264     -98.1301 
0.000582161      2.46982     -84.8896 
0.00106964      5.88313     -67.6199 
0.000124058      1.24740     -48.9005 
0.00116326     0.161245      172.875 
0.000846183      1.01213     -29.6045 
0.000417205      4.42651     -86.8920 
0.000505939      4.96729     -73.3891 
0.000196711      1.55602     -52.8355 
-0.000674795      2.43023     -103.808 
0.000409108      3.27982     -96.3016 
0.000308464      1.08904     -82.6140 
0.000682233      5.57641     -80.5039 
0.000936998     0.646220     -111.801 
0.000943088      3.94325     -92.3255 
0.00100680      5.68764     -73.0306 
0.000116154     0.247386     -75.9638 
0.000115861      3.76133     -83.8953 
0.000793603      2.76007     -90.4152 
0.000222002      3.40588     -86.6335 
0.000536932      2.29120     -73.7798 
0.000113312     0.822192     -71.5651 
-0.000408310      4.98478     -54.1416 
0.000217394      5.45212     -78.3603 
0.000752019      1.96367     -93.5035 
0.000211347      1.16017     -35.8821 
0.000685039      4.39167     -63.2016 
0.000438746      4.07966     -84.3733 
0.000790985     0.305287     -121.608 
0.000829869      2.15295     -54.8336 
0.000375781      5.67168     -64.5193 
0.000386191      2.74729     -85.8252 
0.000462537      4.98706     -75.1278 
-0.000770746      2.02633     -41.3987 
0.000624766      6.08059     -77.6552 
0.000194096      3.91939     -75.8219 
0.000284975      3.16139     -78.6901 
0.000413332      1.36059     -65.6955 
0.000779688      4.28924     -60.6859 
-0.000568925     0.233238     -149.036 
0.000490280      1.42688     -31.2392 
0.000184894      4.64952     -72.7342 
9.91324e-05      3.38479     -86.9516 
0.000757706      5.47171     -78.4026 
0.000246833     0.427551     -100.784 
0.000186869      4.75622     -71.1079 
0.000466447     0.442719     -18.4349 
0.000165446     0.816088     -72.8973 
0.000243429      1.59812     -44.4930 
9.39220e-05      5.65364     -64.4321 
0.000385321      3.38378     -87.2898 
0.000447261      4.28476     -83.8370 
0.000441290     0.100000      90.0000 
0.000445809     0.101980     -101.310 
0.000299229      4.74287     -68.7370 
-0.000327114      4.90918     -93.5035 
-0.000714633      5.73888     -58.2486 
-0.000713651      5.02398     -87.7185 
-0.000380707      5.01270     -54.0903 
8.59455e-05      5.66230     -64.2495 
0.000216711      1.26254     -49.4971 
8.54779e-05      1.02956     -29.0546 
-0.000942519     0.228035     -142.125 
0.000763787      4.70038     -90.7314 
0.000353476      5.34894     -62.8601 
8.19909e-05     0.260768     -85.6013 
0.000490823      3.67614     -63.1561 
-0.000832159     0.566039     -122.005 
0.000269515      3.25214     -79.7267 
8.07708e-05      1.75932     -81.5014 
0.000338188      4.30674     -78.4813 
0.000149902      3.47062     -97.6165 
0.000140470      1.05546     -27.0506 
0.000279229      2.74882     -85.4095 
0.000480821      5.50567     -58.2152 
7.97302e-05      2.28569     -74.2612 
0.000271696      4.42764     -86.6335 
0.000224758      2.46333     -60.3128 
0.000216922      3.26221     -96.6893 
0.000280987      3.15753     -79.0459 
-0.000472237      3.60999     -68.5523 
0.000211004      1.79611     -45.4511 
0.000207255      1.29074     -40.6013 
7.65313e-05     0.384187     -38.6598 
0.000208041     0.243310     -80.5377 
0.000216154      4.76592     -57.5104 
0.000470135      3.27054     -70.3462 
-0.000331214      6.38238     -70.5998 
0.000196328      3.64049     -90.9444 
0.000194760      4.64362     -72.9698 
0.000322290      5.59289     -80.7398 
0.000261774      5.68032     -64.3372 
-0.000269545      4.90799     -93.2705 
0.000196888      2.10038     -88.9088 
-0.000452786      3.38378     -72.1005 
0.000194148      1.63683     -35.0494 
6.95138e-05      1.78539     -80.3266 
0.000252811      5.90163     -67.6938 
0.000256893      2.47330     -59.9103 
0.000193472      2.97866     -103.196 
0.000190871      1.08665     -83.6598 
-0.000190009      4.94518     -54.3815 
6.76378e-05      4.74978     -71.3362 
0.000125134      2.29965     -97.4959 
-0.000132072      5.26836     -71.6338 
0.000187988      3.85004     -97.1619 
-0.000310137      5.69930     -78.2563 
-0.000312990      1.00439     -102.653 
0.000248962      4.78280     -57.6391 
-0.000307975      4.54070     -91.0095 
-0.000121837      5.24938     -71.5651 
6.22190e-05      3.94183     -66.6869 
6.19056e-05      2.99252     -98.4550 
6.16687e-05      2.94061     -88.8309 
-0.000119588      2.32215     -87.5319 
-0.000120089      2.01316     -40.9717 
-0.000119502      6.10790     -75.0082 
6.07682e-05     0.524976     -40.3645 
0.000118697      3.42053     -68.3852 
6.02548e-05      3.25994     -96.3402 
6.03308e-05      3.82005     -62.2275 
5.88951e-05      4.76873     -81.8019 
5.90187e-05      3.93395     -66.9544 
5.88527e-05     0.181108      173.660 
-5.91714e-05      4.90689     -93.0373 
-5.84224e-05      3.22503     -86.8005 
5.83729e-05      2.22144     -46.8241 
5.81205e-05      2.92110     -88.4306 
-5.77708e-05      3.67935     -101.921 
5.73272e-05      4.33627     -60.1240 
-5.72043e-05     0.320000      0.00000 
5.81990e-05     0.461736     -17.6501 
