! Center RA: 04 18 21.28000,  Dec: +38 01 35.76000 (2000.0)
! Tentative model.
! Flux (Jy) Radius (mas)  Theta (deg)  Major FWHM (mas)  Axial ratio   Phi (deg) T \
! Freq (Hz)     SpecIndex
0.00200564     0.393954      66.0375 
0.000460407     0.341760      69.4440 
0.00209533     0.113137     -135.000 
0.000352748     0.447214      63.4349 
-0.00117033      1.74631      69.9048 
0.000569314     0.329848      75.9638 
0.000844556      3.06646      59.4208 
-0.000361493      2.11547      74.6499 
0.00155621      2.04000      61.9275 
0.000975984      4.97031      56.8215 
0.000208014     0.466476      59.0362 
3.74810e-05      1.60897      55.1247 
0.00120102      1.58644      56.3099 
0.000637792      7.85651      61.7388 
0.000196838      7.82130      61.6000 
-0.000423904      5.33322      68.4380 
-0.000872397      2.25282      73.4956 
0.000377037      3.01171      59.6888 
0.000523947      8.46499      65.1303 
0.000361250      4.99231      56.4373 
0.000625161      7.61104      66.1292 
-6.02356e-05      2.91204      69.0755 
0.000413256     0.521536      57.5288 
8.55571e-05     0.737564      49.3987 
0.000523214      2.70496      51.6048 
-0.000818781      2.92657      68.3440 
-2.92319e-05      1.69517      70.7100 
-0.000551720      1.70880      69.4440 
0.000171131      7.84041      61.3429 
-9.67341e-05      2.06649      75.4258 
-0.000453711      8.22572      58.3195 
0.000289200      3.36309      63.1302 
0.000196620      8.17577      64.1871 
-0.000438321      4.88361      70.3777 
-0.000730701      7.27439      66.6773 
0.000181830     0.793977      49.0856 
0.000163694      7.55831      66.2838 
0.000118863      8.78854      61.4520 
0.000394386     0.291204      74.0546 
-0.000161971      4.84595      70.2189 
0.000185370      3.30938      63.4349 
-0.000330069      5.34805      68.0394 
-0.000114580      2.64847      64.9831 
0.000500747      8.42568      63.7999 
0.000395602     0.684690      83.2902 
0.000624981      3.17616      58.9125 
-0.000738610      4.60417      60.3169 
-0.000247574      8.20478      58.5572 
-0.000753911      8.76721      64.6041 
0.000232500      3.42812      70.9308 
-0.000253935      1.55332      78.1113 
9.66175e-05      3.51682      70.7407 
0.000102105      5.31338      62.6633 
0.000385227      8.80473      61.8050 
0.000278239      7.80933      60.5463 
-0.000301148      2.68477      65.3441 
0.000154762      5.27788      62.4639 
0.000458508      8.50129      65.2437 
-0.000149894      5.21536      69.3411 
0.000215390      8.70274      60.8431 
-0.000302319      1.22115      58.3925 
0.000122562     0.282843      81.8699 
0.000104551     0.341760      110.556 
-3.86125e-05      4.80833      70.0576 
-0.000276355      2.72029      70.2328 
0.000182201     0.850412      48.8141 
-0.000518928      1.24258      56.8215 
-0.000128828      2.02781      75.1414 
0.000341522      4.88754      61.1276 
0.000150575      5.39881      59.2547 
-0.000319320      7.22186      66.8431 
-0.000346506      4.58345      69.0343 
-8.03774e-05      4.77074      69.8938 
-0.000210632      4.73844      54.9684 
0.000303773      2.67372      51.0725 
0.000202982      3.41526      71.5651 
8.08585e-05      8.99796      63.3210 
0.000223307      5.25951      62.8503 
6.17209e-05      4.93688      56.5674 
-0.000126560      9.14951      60.9697 
0.000133113     0.898888      69.1455 
-0.000177123      5.17795      69.1849 
0.000117583      3.86657      65.5560 
0.000218510      8.98033      62.9784 
-0.000376566      8.17068      58.4109 
1.58795e-05     0.877268      46.8476 
-0.000183055      4.74721      69.2744 
0.000387415      1.56461      57.5288 
0.000123877      7.98479      65.7461 
0.000210056      8.68746      60.4842 
5.67382e-05      3.34521      63.7413 
-0.000172182      1.76045      68.6821 
4.34200e-05      3.56786      70.3462 
-0.000153590      1.42773      78.6901 
0.000242533    0.0894427     -116.565 
0.000228983      1.10345      46.4688 
0.000227739      5.43323      59.4703 
-0.000190018      8.31048      55.3921 
0.000175034      3.83020      65.3084 
-0.000133880      4.79416      54.8513 
0.000125430      4.39727      58.7681 
0.000115026     0.379473      108.435 
0.000148546      7.87553      61.4824 
-5.21225e-05      9.16524      61.3097 
0.000316857      2.07538      62.4472 
-0.000161826      9.13017      61.1892 
-0.000111681      1.72325      68.1986 
-0.000103871      2.70703      71.0296 
-0.000221192      7.97797      68.8387 
1.36951e-05      3.81366      65.8545 
-0.000140019      8.74757      63.6693 
-0.000143857      7.13852      67.6024 
-0.000167231      3.00958      66.5014 
0.000202873      4.60156      65.8858 
9.61895e-05      8.38980      63.6793 
2.47586e-05      2.99172      60.3501 
-0.000142041      1.19331      76.4296 
-1.28030e-05      1.81108      59.4703 
6.88239e-05      3.29169      64.0577 
-0.000103021      1.93039      55.9807 
4.59799e-05     0.544059      53.9726 
5.80170e-05      4.11825      65.9245 
7.92788e-05      7.96844      66.0083 
-7.83932e-05      4.49515      60.6978 
-0.000101738      8.71174      63.5526 
6.71540e-05      8.96304      62.6345 
-8.91195e-05      8.99502      60.1287 
-4.46318e-05      3.20849      54.1302 
7.80593e-05      9.06951      58.3428 
-2.24433e-05      7.29888      63.9967 
-3.29134e-05      7.47262      68.6542 
3.25703e-05      9.03549      58.2097 
2.16457e-05      4.90697      60.7186 
-2.15768e-05      4.76151      68.8243 
1.09253e-05     0.430813      21.8014 
2.15792e-05     0.282843      171.870 
-1.08651e-05      7.28143      64.2795 
-1.08216e-05      8.72963      63.3175 
1.06720e-05     0.906863      48.5763 
1.06247e-05      4.25319      58.8514 
