! Center RA: 07 21 53.44848,  Dec: +71 20 36.36340 (2000.0)
! Tentative model.
! Flux (Jy) Radius (mas)  Theta (deg)  Major FWHM (mas)  Axial ratio   Phi (deg) T \
! Freq (Hz)     SpecIndex
-0.0148289    0.0400000      180.000 
-0.00358033    0.0565685     -135.000 
0.00427147     0.203961      11.3099 
-0.00441236     0.268328      63.4349 
-0.00235403    0.0400000     -90.0000 
0.00498137     0.164924      14.0362 
0.000511079     0.538145      41.9872 
-0.00226607      0.00000      0.00000 
0.000543359     0.509117      45.0000 
0.00133634     0.538145      48.0128 
0.000586384     0.610574      31.6075 
0.000592708      2.58643      39.3518 
0.00130045      2.83746      21.5014 
-0.000978892      1.90158      22.2490 
-0.00126632      2.88804      36.5525 
-0.00144259    0.0565685     -45.0000 
0.00109048      2.59260      38.1076 
0.00150502      2.96971      27.2553 
0.000342856     0.662118      25.0169 
-0.00128946     0.233238      59.0362 
-0.00118417      2.16148      38.9910 
-0.00108056      1.57582      23.9625 
-0.000323523     0.708802      73.6105 
-0.000777474      1.12641      6.11550 
-0.00110955     0.417612      16.6992 
0.000668101      2.94374      42.7974 
0.000585818     0.644981      29.7449 
-0.00112639      2.12603      11.9442 
0.00110882      2.61473      29.3100 
0.000561986      2.40666      15.4222 
-0.000548917      2.42981      32.9052 
0.00102004      2.26416      32.0054 
0.000402003     0.850412      41.1859 
-0.000285247     0.847585      70.7100 
0.000319919     0.632456      18.4349 
-0.000388217     0.670522      72.6460 
-0.000319788      1.72325      21.8014 
0.000818192      2.08806      20.1707 
0.000229060     0.521536      32.4712 
0.000191265      2.55562      39.9204 
0.000837443     0.178885      26.5651 
-0.000550796      2.74722      16.0600 
0.000505817      1.70880      16.3139 
-0.000697908      2.40832      32.1063 
-0.00105402      2.68924      22.7510 
-0.000312678      2.16518      25.1448 
-0.000367718     0.878180      59.9314 
0.000297292     0.820731      43.0251 
0.000360978      2.82305      20.7461 
-0.000697352      2.82843      28.7398 
0.000334030      2.27754      30.6186 
0.000235605      2.36812      15.6795 
1.97031e-05      1.44886      6.34019 
-0.000346662      1.00240      28.6105 
-0.000314571      1.93866      21.8014 
0.000161781      1.32061      1.73570 
-0.000100406      2.46349      32.3998 
9.03023e-05      2.55562      17.3005 
0.000126588      2.20327      15.8025 
0.000255303      2.97106      43.3634 
-0.000263885      2.59600      33.6901 
-8.14121e-05      1.21655      9.46232 
0.000124501      2.54401      16.4404 
0.000303511      1.28062      1.78991 
0.000306556      2.29085      12.0948 
0.000121468      2.42157      22.3287 
-0.000242280    0.0894427     -26.5651 
-0.000254630      2.92957      34.9920 
1.63641e-05      1.51420      12.2005 
-0.000178758      2.03843      15.9454 
0.000228051      2.66923      29.6384 
-0.000281437      2.88056      25.4976 
3.17083e-05      2.30269      17.1759 
0.000104408      1.55332      11.8887 
3.03511e-05      2.51746      17.5713 
-0.000189109     0.843801      58.5704 
4.58813e-05     0.632456      34.6952 
2.99478e-05      2.63454      30.0686 
-0.000188284      1.12285      4.08562 
3.07628e-05     0.680000      28.0725 
7.22996e-05      2.80371      42.1087 
0.000128876      2.34094      16.8868 
-0.000113554      1.48486     -4.63546 
5.66671e-05      2.62420      37.5686 
-2.84142e-05      1.22376      11.3099 
0.000112456     0.665733      32.7352 
9.70767e-05     0.282843      98.1301 
5.51405e-05      1.36704      20.5560 
6.85679e-05      2.68924      30.3791 
-2.72214e-05      2.44229      31.6075 
