! Center RA: 17 51 32.81857,  Dec: +09 39 00.72829 (2000.0)
! Tentative model.
! Flux (Jy) Radius (mas)  Theta (deg)  Major FWHM (mas)  Axial ratio   Phi (deg) T \
! Freq (Hz)     SpecIndex
-0.0244240     0.120000      180.000 
-0.00142497     0.160000      180.000 
 0.0124019     0.203961      11.3099 
-0.00135591      1.17712      9.78241 
 0.0104781     0.164924      14.0362 
-0.00295841      1.13772      10.1247 
-0.00457307      1.17098      7.85331 
0.00572691     0.144222      33.6901 
-0.0129709    0.0800000      180.000 
0.00243689     0.169706     -135.000 
-0.000346059     0.873613      15.9454 
-0.00156899     0.835225      16.6992 
-0.000280302      1.48000      0.00000 
-0.000423975      1.52053     -1.50744 
-0.00240141     0.441814      5.19443 
0.000875111     0.452548      45.0000 
-0.000625515      1.48054     -1.54816 
-0.000647884     0.923472      4.96974 
0.00252349     0.252982     -161.565 
-0.000132926      1.40057      1.63658 
-6.64063e-05      1.36235      3.36646 
-0.000402978      1.45382     -7.90716 
-0.000409140      1.32242      3.46823 
-0.000165145      1.48216     -3.09406 
-5.82178e-05     0.936376     -19.9831 
0.00135414      2.22171      13.5359 
-0.000521817     0.126491      161.565 
-0.000111207     0.961665     -16.9275 
0.00145763     0.425206      41.1859 
-0.000672507      1.02840     -13.4957 
0.000546118     0.144222     -123.690 
-0.000403356     0.927793      7.43141 
-0.000291166      1.06733     -12.9946 
-0.000924264      1.48862     -6.17017 
-0.000705503      1.07703      21.8014 
-0.000270262      1.36059      1.68468 
-0.000182562      1.01980     -25.5600 
-0.00240286     0.401995      5.71059 
0.00159265      1.64438      18.4349 
-0.000424703     0.961665      16.9275 
-0.000202643      1.00000     -16.2602 
-0.00112736      1.03769     -27.5528 
0.00265249     0.243310     -170.538 
-0.000655810      1.74264      31.8660 
-0.000415703     0.967471      7.12502 
0.000362359     0.126491     -108.435 
-0.000267844      1.13137      8.13010 
0.000687578      2.83323      13.0552 
-0.000809051      1.65215      6.95296 
-0.000196522      1.28250      3.57633 
-0.000638167      1.76409      32.9694 
0.00126150     0.576888     -33.6901 
-9.92489e-05      1.09836      10.4915 
0.00117282      1.55332      34.5085 
0.000478349      2.18284      13.7816 
-0.000387761      1.85084     -6.20345 
-8.80884e-05      1.64779      5.57220 
-0.000420746      2.08000      0.00000 
-0.000654859     0.950789      14.6209 
-0.000109339      1.32061      1.73570 
2.94075e-05      2.08806      16.6992 
-0.000223049      2.18358      8.42697 
0.000394716      2.04978      17.0205 
0.000365406     0.120000     -90.0000 
-0.000241638      1.73066      33.6901 
0.000243264      1.69941      26.5651 
-0.000336993      1.09179      8.42697 
0.000215762      2.21269      12.5288 
-0.000134161     0.724431     -6.34019 
-0.000531622      2.13841      7.52382 
0.000715143     0.126491      18.4349 
2.39461e-05      2.63879      14.0362 
-0.000222337      1.28062      1.78991 
-0.000184447      1.12925      22.9321 
0.000413201      1.96977      29.1676 
8.56020e-05      2.60000      14.2500 
0.000461711      2.17366      12.7575 
-0.000169594      1.75727     -11.8215 
0.000308813     0.126491     -71.5651 
-0.000590363     0.368782      12.5288 
0.000222908      1.73666      38.4537 
0.000236748      2.72734      4.20536 
0.000291387      1.63218      17.1027 
0.000147321      2.59044      13.3925 
-0.000270894      2.45862      21.9745 
0.000178623     0.590593     -28.3008 
3.71284e-05     0.456070      37.8750 
-0.000122878      2.68328      26.5651 
0.000139242     0.611882      11.3099 
-6.97162e-05      1.60798      5.71059 
0.000154210    0.0894427     -63.4349 
-1.71460e-05      1.78213     -9.03948 
3.34128e-05      2.55155      13.6005 
-1.67823e-05     0.690507     -10.0080 
-1.65843e-05      2.00639      23.4986 
3.30555e-05     0.113137     -45.0000 
