! Center RA: 22 02 43.29137,  Dec: +42 16 39.97987 (2000.0)
! Tentative model.
! Flux (Jy) Radius (mas)  Theta (deg)  Major FWHM (mas)  Axial ratio   Phi (deg) T \
! Freq (Hz)     SpecIndex
 0.0199716    0.0400000      0.00000 
-0.00867092     0.240000      180.000 
-0.00778117     0.243310     -170.538 
 0.0142585      0.00000      0.00000 
-0.00753156     0.203961     -168.690 
-0.00333180     0.200000      180.000 
0.00530117     0.456070     -164.745 
-0.00205108      1.36059     -178.315 
-0.000782413      5.09698      171.425 
-0.000213719      1.36000      180.000 
-0.00123343      8.35627      154.784 
-0.00124414     0.357771     -26.5651 
-0.000164501      8.32010      154.667 
0.00235506     0.226274      45.0000 
-0.00109864      6.72012     -179.659 
-0.000806506      4.90306      168.232 
-0.00146421      1.71020     -169.216 
-0.000103089      8.30306      154.916 
-0.000690105      3.77719     -155.606 
-9.98719e-05      4.25281     -163.610 
-0.000463658      8.21365      154.933 
0.00102401      7.67771      174.319 
-0.000318576      5.49225      152.688 
-0.00107681     0.215407     -111.801 
-0.000223575      4.29120     -163.761 
-4.84707e-05     0.215407     -21.8014 
-0.00103652      5.13654      171.491 
-0.000774258     0.203961     -11.3099 
-0.000633816      4.30256     -163.250 
0.000764414      7.38777     -175.030 
-0.000299365      4.79683      155.358 
-8.90214e-05      6.09262      156.801 
0.00149089      1.31575     -160.463 
0.00111859     0.430813     -158.199 
0.000272877      7.32830      173.418 
0.000958132      8.24786     -177.498 
-0.000344686      8.01439      153.947 
-0.000366135      5.52768      153.806 
-0.000123642      6.22562      154.093 
-0.000541078      6.12940      156.949 
-0.000255382      4.26427     -163.095 
0.000937228      8.27613     -168.853 
-0.000449127      4.78163      160.959 
-8.06287e-05      3.86657     -155.556 
-0.000532908      3.57972     -161.768 
0.000655954      6.71726      162.320 
-0.000718645      4.84991      155.126 
-0.000860627      4.51008      173.379 
-0.000383301      3.44209     -178.002 
-0.000303919      6.26163      154.253 
-0.000177668      3.90302     -155.799 
-0.000158404      5.45674      152.496 
-0.000922844      5.76056      152.723 
0.000173689      1.08812     -162.897 
0.000853462      5.84876     -176.864 
-0.000188547      4.03842     -163.899 
-7.10056e-05      1.32242      176.532 
-0.00110499      1.49933     -170.789 
-0.000131115      5.02824      152.008 
-0.000629489     0.178885     -116.565 
-0.000162985      3.44372     -177.337 
-6.98080e-05      5.63773     -155.253 
-0.000365554      7.97847      153.820 
0.000233460      2.68745     -165.343 
-0.000402390      6.84105      178.995 
-6.50741e-05      6.06432      153.773 
-0.000293998      3.74080     -155.353 
-0.000124543      1.36528      174.958 
-0.00110330      5.60143     -155.082 
-0.000172832      3.92347     -156.571 
-0.000500705      4.59930     -164.876 
-0.000586254     0.164924     -14.0362 
0.000557829      6.85624      160.931 
-0.000835469     0.594643      160.346 
0.000663063     0.963328     -175.236 
-6.26136e-05      8.37339      154.537 
-0.000178970      4.76873      161.413 
-0.000769438      7.10752      155.743 
-0.000108287      6.01079      153.947 
-0.000643050      6.80753      177.306 
0.000104511      6.61695      162.770 
-0.000399767      4.77678      152.577 
0.000137686      2.64877     -165.124 
-0.000315945      8.08950      171.469 
0.000328697      7.41728      172.875 
-0.000245757      5.43956      154.754 
-3.15293e-05      4.05660     -167.471 
-0.000264080      4.36568     -166.218 
0.000704029      1.10635     -167.471 
-0.000258720      5.28394      150.524 
0.000239752      6.56695      163.000 
-0.000500315      3.75766     -154.799 
-0.000221767      1.40911      173.480 
-0.000398311      6.52343      170.826 
-0.000385770      5.64113     -173.077 
-0.000603078      4.39090     -173.199 
0.000366963      9.14846      160.060 
0.000361203      2.69785     -164.521 
-0.000209615      8.28608      169.992 
-0.000528619      7.12101     -179.034 
5.52765e-05      7.28857      173.382 
-0.000209213      4.74131      152.354 
2.93779e-05      9.13893      166.329 
-0.000626553      3.48207     -178.025 
-0.000110030      4.83355     -169.992 
0.000583077      6.83064     -165.069 
-0.000702809      7.76216      166.895 
5.55098e-05      8.80436      160.907 
-0.000558980     0.322490     -29.7449 
-0.000175105      3.40376     -160.074 
-0.000347310      6.24436      154.584 
0.000267053      9.27586      165.005 
-0.000207556      5.50970      153.249 
-0.000330517      4.46587      173.830 
-0.000530640      8.18828      166.439 
0.000612900      7.96362     -178.273 
-0.000143569      6.04305      173.157 
-7.78701e-05      8.19151      172.424 
0.000606300      8.81753      160.661 
-0.000248603      8.08040      179.433 
-0.000155890      7.17919     -172.637 
-0.000615976      3.60799     -176.186 
-0.000541570      4.85337     -175.746 
0.000206726      4.96145     -150.542 
2.57625e-05      9.12956      166.573 
-0.000287715      4.89506      168.690 
-0.000334583      4.87295     -170.074 
0.000285123      7.65465     -170.981 
-0.000624682      5.41465     -167.196 
-4.82251e-05      5.29513      153.048 
-0.000201645      8.15725      172.108 
-0.000276473      3.88742     -176.460 
7.25128e-05      1.76045      178.698 
-0.000319835      7.94833      167.502 
0.000162281      8.88693      165.401 
0.000361011      7.02737      164.144 
-0.000247275      8.14165      172.945 
0.000437082      7.13896      175.823 
-0.000346707      8.08089      179.149 
-0.000383479      1.41421      171.870 
-0.000179375      4.18187     -158.097 
-0.000797024      5.68084     -173.125 
-0.000648557      5.44500     -158.902 
-0.000228625      7.13448     -172.915 
-7.05840e-05      8.08366      171.750 
-0.000115781      4.97305      163.168 
-0.000231998      6.61465     -176.186 
0.000308733      1.80178      177.455 
-0.000297265      6.04013     -157.001 
-2.34548e-05      4.75479      169.824 
-0.000161294      7.99880      171.951 
-0.000181355      8.12010      157.098 
-0.000169030      7.36369      166.492 
-0.000427342      7.21997      158.552 
-0.000126236      4.36953      168.381 
-0.000208184      6.55134     -158.134 
0.000418706      7.45697      172.913 
-0.000647850      8.20010     -179.721 
-0.000127559      7.22850      166.887 
-3.59298e-05      3.81701     -174.588 
-0.000206526      9.26084      162.661 
0.000465573      6.82642      174.958 
-0.000123714      3.28098      178.603 
0.000542182      8.68470      174.184 
-0.000232141      4.02751     -164.445 
0.000506879      5.18166     -164.784 
0.000608578      4.54401     -152.758 
-8.64074e-05      6.76651      155.556 
0.000281221      8.43403      164.316 
-0.000190530      2.89993     -155.556 
-0.000164823      4.03524     -162.104 
-4.28755e-05      4.83140     -165.619 
0.000300254      8.57643      162.072 
-4.24314e-05      5.58226     -154.537 
0.000135008      2.79571     -160.787 
-0.000102672      6.60521     -163.101 
-0.000170510      6.24461     -177.797 
-2.13891e-05      8.20039     -179.441 
-0.000129894      5.23267     -168.089 
0.000350117      1.32966     -158.839 
0.000153622      3.46433     -143.924 
0.000292787      2.85797      173.571 
-0.000154645      2.92985     -175.301 
-0.000266085      8.24990      155.050 
2.11005e-05      5.80882     -176.842 
0.000405775      8.53314      152.954 
-6.18636e-05      5.43824     -153.812 
-0.000139543      8.63870      158.543 
0.000240666      8.84823      165.336 
-0.000156743      5.35836      149.990 
-0.000415123      9.41148      162.181 
-0.000154007      4.78280     -165.964 
-0.000299093      3.94928      173.019 
0.000191112      1.76182      177.397 
-0.000206783      4.14478     -157.891 
-0.000452054      6.75005      155.865 
-0.000100610      5.51536      156.038 
-5.28474e-05      5.81378      169.695 
-0.000392556      4.47035      173.320 
-0.000349670      5.63248     -168.530 
-0.000119852      6.04794      172.781 
-0.000169721      7.24707      177.469 
6.35259e-05      8.26849     -169.125 
0.000194693      5.32000      180.000 
-0.000201738      8.34506      170.899 
0.000477980      5.62921     -171.006 
-0.000173314      7.53923     -164.932 
0.000222317      2.68924     -157.249 
-0.000200874      8.54110      155.956 
-0.000301527      7.28890      177.169 
-0.000341140      5.42026     -153.246 
-0.000201577      5.75402      170.800 
7.56374e-05      7.87441     -172.117 
-0.000211686      2.88056     -154.502 
-1.98044e-05      8.57765      156.065 
-0.000381765      1.40228     -176.730 
-0.000317494      1.71814     -167.905 
8.98405e-05      8.42330      164.578 
-0.000156987      8.09711      173.191 
-1.95159e-05      3.45508     -159.677 
-0.000260099      7.73253     -165.317 
-0.000206701      7.96090      179.136 
-0.000159081      7.95367      172.196 
0.000128006      4.94190     -150.945 
-7.12028e-05      3.48092     -178.683 
-0.000371545      9.40545      159.330 
0.000296313      3.42041     -169.216 
-0.000274613      3.33539     -157.433 
-1.90830e-05      6.59369     -163.434 
0.000137892      8.73109      168.639 
-0.000235677      8.84660      157.958 
8.53013e-05      7.28406      173.695 
-0.000205206      6.92636     -173.367 
8.79897e-05      8.50261      160.201 
-3.67023e-05      4.79533      152.152 
0.000221151      6.12849      158.962 
-0.000317855      4.39582     -172.681 
0.000175491      8.24621     -177.776 
0.000265944      7.34793     -175.003 
-0.000158665      7.18955      166.814 
-0.000255834      6.55536     -163.334 
-0.000145994      4.44288     -177.936 
0.000216429      6.26827     -169.335 
-0.000339787      1.45986      170.538 
-0.000167000      7.13952     -172.596 
-5.40131e-05      3.00000      163.740 
0.000437435      5.12141      178.657 
-0.000326039      4.98718      174.015 
-5.26150e-05      7.86791      166.176 
-0.000203299      3.26974      172.266 
0.000160646      6.20928      166.590 
-9.69736e-05      7.39340      166.866 
-0.000246194      6.53654     -158.459 
-0.000186860      4.76000      151.928 
-8.25020e-05      7.85315      153.696 
-6.80000e-05      4.88737      169.150 
-0.000261863      7.04954      170.858 
-1.80950e-05      4.27607     -162.582 
-0.000306237      5.37848      149.621 
-0.000247796      9.22267      162.587 
-0.000344628      2.89358     -174.447 
-0.000160207      3.03842      163.951 
-0.000228640      6.57474     -176.163 
-1.77614e-05      1.28250      176.424 
-4.82086e-05      4.06546     -166.921 
-0.000136328      4.56070     -164.745 
0.000362322      1.09836     -169.509 
0.000223542      7.51851      148.932 
-0.000235133      4.31426     -162.741 
-6.73271e-05      4.96596     -169.324 
6.70798e-05      6.05072      176.589 
-0.000134191      3.73888     -153.983 
6.40499e-05      7.88000     -171.829 
-9.36395e-05      4.82162     -166.079 
-0.000164916      1.32544      174.806 
0.000350152      3.21123     -166.310 
-0.000149707      3.54175     -161.565 
-0.000186118      6.70403     -166.544 
-0.000310262     0.456070      164.745 
0.000416242      9.74819      156.801 
-0.000240949     0.788923     -149.534 
0.000122793      1.97018      174.174 
0.000266777      3.61021     -170.433 
-3.31403e-05      3.23011      172.171 
0.000236822      6.03404     -173.911 
0.000106173      2.08346     -176.698 
-0.000147099      9.28491      158.519 
-3.17519e-05      1.89188     -166.551 
-0.000189403      7.14400      155.875 
0.000105209      5.81116     -176.448 
-0.000123923      8.52103      155.601 
-1.63071e-05      4.80300      167.005 
1.63062e-05      2.85237     -165.379 
-7.67435e-05      4.98317      174.472 
-0.000200912      6.37922     -163.610 
-0.000119447      6.84187      178.660 
-3.16262e-05      5.00000      163.740 
0.000187111      8.38017      159.316 
0.000100231      7.77740      176.166 
-4.41338e-05      8.76256      172.129 
7.74943e-05      8.56878      153.076 
-4.60115e-05      5.06786      168.158 
-0.000118586      4.94223     -168.326 
-0.000115706      4.77326      166.430 
0.000186520      2.20581      175.840 
0.000103178      2.82418     -164.389 
4.42465e-05      9.20739      166.688 
-3.05788e-05      4.63897     -172.569 
-0.000201008      7.99330      172.235 
-3.04075e-05      5.22792      170.754 
0.000100935      6.01079      176.566 
-4.35477e-05      5.45674     -154.374 
-0.000227197      3.60555     -176.820 
0.000101444      7.01655      164.458 
-0.000197292      8.22717      166.504 
-4.39468e-05      8.10195      172.910 
-5.77091e-05      5.57437      175.885 
-0.000154914      7.92091      179.132 
-1.52486e-05      2.42553      166.651 
-2.96243e-05      5.13077      171.933 
0.000154541      7.24000      173.974 
-2.96764e-05      3.52023     -179.349 
0.000141481      3.12359     -170.417 
0.000209403      8.67594      153.435 
-9.85069e-05      9.47460      161.030 
1.51241e-05      8.38475      164.505 
-2.90113e-05      6.23448      156.560 
-0.000139895      1.92208     -167.989 
-2.91514e-05      6.86941      152.987 
-8.44416e-05      4.98895      164.181 
0.000111482      8.72330      168.896 
-0.000138452      8.33930      155.033 
8.42264e-05      6.36453      177.839 
-0.000139678      5.53173      176.269 
-1.47695e-05      8.20244      178.603 
2.92100e-05      6.30593      166.052 
4.28820e-05      2.66443     -172.235 
-5.63187e-05      3.45254     -153.138 
-8.32478e-05      2.41661      167.574 
-7.00672e-05      3.68196      178.132 
6.97174e-05      3.37378     -169.756 
-6.91908e-05      6.06155     -157.496 
-6.94444e-05      4.90306     -168.232 
-0.000137381      8.07208      160.308 
4.16585e-05      5.80992     -159.444 
9.54392e-05      3.30841     -165.292 
-0.000110112      8.55748      155.711 
-0.000163393      5.46260     -166.880 
0.000110822      7.46298      161.565 
-6.88773e-05      6.08763      172.828 
0.000122701     0.576888      146.310 
8.14612e-05      5.32015      179.569 
-4.13442e-05      9.09373      155.577 
-5.49542e-05      6.73011      155.415 
-6.79883e-05      4.88623      155.323 
9.48492e-05      7.33430      153.435 
-4.10532e-05      5.10701      168.250 
-9.47294e-05      4.18244      170.087 
-4.10185e-05      7.16815      158.733 
-4.08741e-05      8.24243      178.610 
2.70453e-05      9.26559      165.244 
-8.13476e-05     0.906863     -138.576 
6.77176e-05      6.31569      165.700 
4.08181e-05      2.78280     -161.565 
5.39607e-05      6.84655      163.365 
-4.06935e-05      4.37539     -157.420 
-5.37877e-05      7.52893     -165.225 
-6.73327e-05      8.15186      172.387 
-5.37192e-05      3.02761      164.678 
-4.01172e-05      7.93977      167.784 
-5.38455e-05      6.69483     -166.877 
-2.67012e-05      5.23450      170.322 
-4.01118e-05      5.38457     -153.054 
6.67650e-05      5.20999     -165.324 
-6.62755e-05      7.28011      147.794 
-5.35476e-05      4.99103     -153.846 
-3.99552e-05      5.39748      168.024 
2.69689e-05      9.11087      159.974 
-5.30797e-05      7.10988      150.695 
4.01016e-05      2.70407     -172.349 
2.67112e-05      7.61514     -170.933 
-3.98913e-05      5.24748     -176.941 
-1.34888e-05      3.88515     -177.049 
3.98203e-05      7.14199     -175.503 
-1.34861e-05      4.29325     -153.435 
3.96711e-05      8.88198      160.259 
3.94613e-05      3.68456     -159.007 
-5.29362e-05      5.72056     -173.173 
-3.97397e-05      3.34903     -150.680 
3.95926e-05      6.78657      174.928 
-2.64351e-05      7.82304      159.341 
1.33475e-05      7.88578     -171.541 
2.63305e-05      2.00998      174.289 
2.62845e-05      8.56420      162.327 
2.61313e-05      6.13241     -164.876 
2.61217e-05      6.16117      166.866 
1.31681e-05      8.25639      176.389 
-2.60393e-05      7.03841     -163.831 
-1.31064e-05      6.80188      178.652 
-2.60751e-05      4.91137     -167.775 
-2.60024e-05      9.48768      160.801 
2.60407e-05      7.47572      161.274 
1.30092e-05      2.78568     -164.168 
-1.30000e-05      6.20322     -178.152 
1.29447e-05     0.256125      38.6598 
-1.29153e-05      3.36880     -150.086 
1.28927e-05      8.44493      164.055 
1.28812e-05      6.36616      177.479 
