! Center RA: 08 54 48.87493,  Dec: +20 06 30.64078 (2000.0)
! Tentative model.
! Flux (Jy) Radius (mas)  Theta (deg)  Major FWHM (mas)  Axial ratio   Phi (deg) T \
! Freq (Hz)     SpecIndex
-0.0319740      0.00000      0.00000 
-0.0251201     0.425206     -48.8141 
-0.0116375    0.0565685     -45.0000 
-0.00985305     0.481664     -48.3665 
-0.00329061    0.0400000     -90.0000 
-0.00357315     0.452548     -45.0000 
-0.00902777    0.0400000      180.000 
-0.00249052     0.456070     -52.1250 
-0.000657325     0.425206     -41.1859 
-0.000530497     0.400000     -36.8699 
-0.00325355     0.432666     -33.6901 
-0.00210083     0.488262     -55.0080 
0.00243633      1.52000     -90.0000 
-0.000577926     0.362215     -83.6598 
-0.00137344     0.512250     -51.3402 
0.000369185      1.48216     -93.0941 
0.000800139      1.52053     -88.4926 
-0.000704279     0.215407      158.199 
-0.00131580     0.360000     -90.0000 
-0.00145330     0.233238      149.036 
-0.00131830     0.322490     -150.255 
0.000141324      1.48486     -94.6355 
0.000271763      1.36059     -88.3153 
0.000503415      1.16619     -84.0939 
0.000122623      1.21655     -80.5377 
-0.00101990     0.466476     -30.9638 
0.000483349      1.45382     -97.9072 
-0.000794711      1.16276     -116.565 
0.000269463      1.36235     -86.6335 
0.000108305      1.52840     -83.9910 
0.000285593      1.56051     -88.5312 
-0.000452165     0.611882     -78.6901 
0.000371471      1.64000     -90.0000 
-0.00131838      1.70176     -119.578 
0.000132406      1.92042     -88.8065 
-0.000207564      1.18119     -118.301 
0.000430641      1.32242     -86.5318 
0.000758424     0.144222      33.6901 
0.000166658      1.22376     -78.6901 
0.00120624     0.848528     -45.0000 
0.000229500      1.53310     -82.5041 
-0.000198107    0.0894427     -26.5651 
0.000438715      1.87361     -106.113 
8.19135e-05      1.88170     -87.5634 
0.000256299      1.12071     -87.9546 
-0.000470044     0.840952     -64.6538 
-0.000666046     0.215407     -21.8014 
0.000522334     0.282843      8.13010 
-0.000953903      1.85300     -76.2637 
0.000264966      1.41873     -68.4986 
-0.000184716      1.55795     -119.197 
0.000286401     0.611882     -11.3099 
-0.000330287     0.538145     -48.0128 
8.02853e-05      1.92000     -90.0000 
0.000578970     0.126491      71.5651 
0.000414137     0.501199     -118.610 
0.000912189     0.620967     -14.9314 
0.000241425     0.820731     -43.0251 
8.17889e-05      1.23223     -76.8660 
0.000226318      1.12000     -90.0000 
0.000299621      1.64049     -88.6028 
-0.000524280     0.858836     -62.2415 
-0.000371974      1.63267     -120.964 
0.000440339      1.81108     -83.6598 
0.000259929      1.45986     -99.4623 
-7.08067e-05      1.43220     -125.910 
-0.000662554     0.501199     -28.6105 
0.000119156      2.01792     -103.761 
5.33776e-05      1.24193     -75.0686 
0.000485718     0.483322     -114.444 
8.77357e-05      2.02781     -104.859 
-0.000167317     0.362215     -96.3402 
4.87097e-05      1.25284     -73.3008 
-0.000190075     0.605310     -82.4054 
0.000508861     0.120000      90.0000 
0.000444891      1.64924     -112.834 
-0.000349659     0.610574     -121.608 
-0.000140443      1.61988     -69.7751 
-0.000165623      1.56869     -70.6410 
7.40367e-05      1.26491     -71.5651 
0.000187717      1.32544     -84.8056 
-8.42530e-05     0.888144     -82.2348 
5.58650e-05      2.00878     -102.653 
-0.000120687      1.36000     -118.072 
6.80673e-05      1.85559     -97.4314 
0.000125741     0.126491     -108.435 
-0.000170715      1.18457     -101.689 
6.65445e-05      1.27812     -69.8637 
-5.26241e-05      1.73666     -118.926 
0.000215185      1.20000     -126.870 
0.000138248     0.120000     -90.0000 
-0.000114750     0.288444     -146.310 
-5.00718e-05     0.320000     -90.0000 
3.73050e-05      1.29244     -68.1986 
0.000136098      1.02528     -110.556 
-4.92388e-05     0.894427     -79.6952 
2.43819e-05     0.735391     -45.0000 
2.42495e-05      1.47078     -67.6199 
-2.42681e-05     0.268328     -63.4349 
1.21658e-05      2.03843     -105.945 
