! Center RA: 08 54 48.87493,  Dec: +20 06 30.64078 (2000.0)
! Tentative model.
! Flux (Jy) Radius (mas)  Theta (deg)  Major FWHM (mas)  Axial ratio   Phi (deg) T \
! Freq (Hz)     SpecIndex
 0.0297340     0.126491     -18.4349 
0.00557087     0.164924     -14.0362 
 0.0140083     0.400000     -36.8699 
-0.0124086     0.126491      161.565 
-0.000873908     0.536656     -63.4349 
-0.00783922     0.501199     -61.3895 
-0.0101668    0.0894427      153.435 
-0.00286284      1.48216     -93.0941 
0.00391013     0.395980     -45.0000 
-0.000825418     0.520000     -67.3801 
-0.000656433      1.44056     -91.5911 
-0.000618008      1.36059     -88.3153 
0.00642696    0.0894427     -26.5651 
0.000545543     0.160000      0.00000 
-0.000291721    0.0894427      116.565 
-0.00295509    0.0800000      90.0000 
-0.000958723      1.32061     -88.2643 
-0.00115823      1.60798     -84.2894 
0.00451855     0.120000      0.00000 
-5.87767e-05     0.282843     -98.1301 
-0.000439241     0.243310     -80.5377 
-0.00259791     0.226274     -45.0000 
-0.00154625     0.268328     -26.5651 
-0.000622399     0.411825     -119.055 
-0.00134495      1.12071     -87.9546 
0.00116772     0.233238      149.036 
0.00163899     0.282843      171.870 
-0.00175002     0.967471     -119.745 
-0.000187185     0.233238     -30.9638 
-0.00118835     0.291204     -15.9454 
0.000285237      1.37753     -64.1790 
-0.000189384     0.432666     -123.690 
-0.000531439      1.40684     -104.826 
-0.000586517     0.800000     -126.870 
-0.000193551      1.82165     -81.1582 
0.00141537     0.894427     -100.305 
-0.000124560      1.60449     -85.7108 
-0.000609274      1.72047     -88.6678 
-0.000386571      1.34462     -120.379 
-0.000315619     0.698570     -113.629 
-0.000813932      2.00000     -106.260 
-2.55648e-05      1.44000     -90.0000 
-0.000525376     0.796994     -72.4744 
0.000334660     0.505964     -18.4349 
-0.000132530     0.362215     -6.34019 
0.000320393      1.07703     -105.068 
-0.000505399     0.425206     -131.186 
0.000434674      1.10923     -64.3590 
-0.000172534      1.56818     -84.1440 
-4.08143e-05      1.32000     -90.0000 
0.000529175     0.256125     -128.660 
-0.00137555     0.322490     -7.12502 
0.000168303      1.41365     -64.8852 
-0.000873248    0.0565685      135.000 
0.000569462      1.06733     -102.995 
-3.70531e-05      1.48000     -90.0000 
-0.000118249     0.126491      71.5651 
0.000331189      1.94648     -99.4623 
-0.000107105      1.76045     -88.6980 
0.000413236     0.468188     -19.9831 
-0.000354721      1.41760     -106.390 
-1.82327e-05     0.430813     -111.801 
-0.000366965     0.572713     -77.9052 
-0.000414232      1.21062     -97.5946 
6.11110e-05     0.411825     -29.0546 
0.000744689     0.878180     -59.9314 
0.000150188     0.611882     -11.3099 
-4.68075e-05      1.48054     -88.4518 
-0.000370763      1.67045     -73.3008 
-0.000112153      1.76000     -90.0000 
0.000334607     0.368782     -49.3987 
-5.86075e-05      1.56461     -85.6013 
-5.60044e-05     0.215407     -68.1986 
0.000324620     0.200000      143.130 
-4.37049e-05      1.28062     -91.7899 
0.000490317     0.280000      180.000 
-0.000700831    0.0800000      180.000 
0.000280368      1.20930     -124.216 
-0.000117390     0.521536     -57.5288 
-0.000216788     0.252982     -71.5651 
-0.000101207      1.01272     -80.9097 
0.000328934      1.95346     -100.620 
-0.000117382     0.973242     -80.5377 
-4.11808e-05      1.48216     -86.9059 
0.000164150      1.20000     -126.870 
0.000201309      1.50572     -73.0092 
-9.78304e-05      1.52473     -85.4860 
0.000108663      1.05603     -65.3764 
-9.65663e-05     0.611882     -78.6901 
-2.42418e-05      1.28000     -90.0000 
8.25967e-05     0.233238     -120.964 
0.000106999     0.430813     -21.8014 
-8.08326e-05      1.96652     -94.6669 
2.35361e-05      1.60100     -102.995 
3.46901e-05      1.02840     -103.496 
6.88309e-05      1.92167     -87.6141 
-4.60850e-05     0.809938     -69.7751 
3.43324e-05      1.59248     -101.592 
