! Center RA: 04 18 21.28000,  Dec: +38 01 35.76000 (2000.0)
! Established model.
! Flux (Jy) Radius (mas)  Theta (deg)  Major FWHM (mas)  Axial ratio   Phi (deg) T \
! Freq (Hz)     SpecIndex
  0.460767      0.00000      0.00000 
 0.0220261    0.0447214      63.4349 
 0.0209901    0.0200000     -90.0000 
 0.0202295    0.0632456      71.5651 
 0.0539946    0.0447214     -116.565 
 0.0524071    0.0894427      63.4349 
 0.0676977    0.0632456     -108.435 
 0.0779124     0.107703      68.1986 
 0.0224550    0.0721110     -123.690 
 0.0873236     0.134164      63.4349 
  0.108644    0.0894427     -116.565 
 0.0492976     0.126491      71.5651 
 0.0174979     0.304631      66.8014 
0.00770767     0.331059      64.9831 
 0.0142045     0.438634      65.7723 
 0.0307695     0.465188      64.5367 
 0.0229169     0.286356      65.2249 
 0.0143680     0.152315      66.8014 
 0.0317375      1.88743      64.2495 
 0.0143238      1.49586      60.3501 
0.00627938     0.483322      65.5560 
 0.0453654     0.107703     -111.801 
0.00553407      1.46860      60.6422 
0.00982672     0.608276      62.5924 
0.00522248     0.456946      66.8014 
0.00993303      1.47851      59.9667 
0.00202432      1.87883      64.7989 
 0.0143578     0.430813      68.1986 
0.00964259     0.635295      61.8214 
0.00192529      1.96825      64.7369 
0.00807623     0.313050      63.4349 
0.00185067      1.85224      65.0952 
0.00348827      1.98635      64.9831 
0.00172124      1.50586      59.6888 
0.00165480      1.84391      65.6589 
0.00305999      1.99489      64.4626 
0.00157222      1.60125      62.4748 
0.00152375      1.82571      65.4002 
0.00148574      1.46123      59.5742 
0.00350044      1.61901      62.8019 
0.00140672      1.81747      65.9735 
0.00137532      1.41421      61.2602 
0.00356142      2.01296      64.7080 
0.00130921      1.94124      62.3789 
0.00129656      1.45437      58.4957 
0.00667038      2.95161      63.4349 
0.00125951      2.00450      65.2249 
0.00235969      1.63683      63.1219 
0.00122627      1.79922      65.7142 
0.00120906      1.39542      62.7004 
0.00433409      2.73905      61.1892 
0.00741515      1.21078      59.1986 
0.00545907     0.652993      62.6501 
0.00114625      1.46492      57.8288 
0.00113299      1.86815      68.6542 
0.00110005      1.93298      61.5788 
0.00106201      1.78101      65.4495 
0.00105710      2.57992      60.2551 
0.00105070      1.44803      57.4074 
0.00386168      1.13719      55.7510 
0.00100761      1.38636      63.4349 
0.000997169      1.68155      63.1302 
0.00184777     0.404969      69.7751 
0.000981617      1.96010      61.3429 
0.00839232      2.55265      60.4222 
0.00181033      2.96068      63.9542 
0.00252934      1.86097      69.2277 
0.00254068      1.45890      56.7456 
0.000918502      1.56064      59.1622 
0.00386564     0.662420      61.1134 
0.00417237     0.423792      70.7100 
0.00381810      2.74707      61.7557 
0.000900336      2.02158      64.1955 
0.00325596      1.69941      63.4349 
0.00160113      1.37753      64.1790 
0.000860812      1.94258      61.0600 
0.00139828     0.841190      61.6070 
0.000807314      2.79979      64.1671 
0.00417620      3.16992      66.1843 
0.00269959      2.03961      64.4400 
0.000785630      2.94462      65.5238 
0.00138797      1.78314      66.8858 
0.000758418      1.96977      60.8324 
0.000739571      2.96951      63.6075 
0.00137230     0.831865      62.8189 
0.00135534      2.93639      65.8790 
0.000693688      1.46997      56.0937 
0.00127778      1.95233      60.5463 
0.00325869     0.322490      60.2551 
0.00124654      1.36894      64.9325 
0.00123654      1.87968      69.4440 
0.00120393      1.56461      57.5288 
0.00114200      2.97893      62.4027 
0.000605183      1.44222      56.3099 
0.00114799      2.92828      66.2362 
0.000575203      2.75659      61.3895 
0.00144372      3.17805      65.8545 
0.00184298      1.45341      55.6539 
0.00232540      3.18823      66.3295 
0.00101712      2.77143      59.1781 
0.00141554     0.787909      66.0375 
0.000526964      1.85397      69.8057 
0.000519350      1.97960      60.3269 
0.000977456      1.36059      65.6955 
0.000855263      2.93080      67.1094 
0.00293701      2.04832      63.9353 
0.000497502      2.76471      61.9519 
0.00224925     0.984886      60.8324 
0.000906287      1.57544      56.9151 
0.000484447      1.78639      68.3177 
0.00682098     0.116619     -120.964 
0.00171358      2.92308      67.4706 
0.000456301      1.87275      70.0169 
0.000451251      2.98824      62.0629 
0.000856478      1.52315      66.8014 
0.000826965      2.78173      63.0665 
0.000810593      1.96224      60.0378 
0.00270256      4.70918      65.9387 
0.00119639      2.78173      58.8243 
0.000425189      1.77539      67.4794 
0.00216120      4.72745      66.0375 
0.000406317      2.47782      62.6076 
0.00117930      1.14856      54.9262 
0.00209191     0.644981      60.2551 
0.000747304      3.25122      66.4312 
0.000385312      1.35248      66.4677 
0.000376799      1.77910      68.9162 
0.000375431      2.99767      61.7251 
0.000957808     0.761577      66.8014 
0.000365153      1.51539      67.4965 
0.000973143      2.46868      63.0198 
0.00142807      1.46479      55.0080 
0.000690195      2.91548      67.8337 
0.000352893      1.84716      70.3879 
0.000676551      1.58644      56.3099 
0.000941441      2.92971      60.1096 
0.00134043      1.22801      59.6764 
0.000646423      3.17648      65.0485 
0.000939191      2.79213      58.4732 
0.000641510      1.34462      67.2490 
0.000334161      2.56562      59.0362 
0.000640414      1.77200      69.5196 
0.000329238     0.780000      67.3801 
0.00132457      3.26166      66.8937 
0.000887890      1.50785      68.1986 
0.000608344      3.09011      68.7495 
0.000310462      2.90799      68.1986 
0.000501027      4.89804      66.1563 
0.000837350      2.62374      56.1888 
0.000299134      3.00593      62.2415 
0.000296907      1.97231      59.5345 
0.00159320      2.38730      58.7070 
0.000629217      4.90616      65.9427 
0.000549424      1.59762      55.7131 
0.000284897      2.89337      68.9341 
0.000283881      1.86601      70.5940 
0.000529236      3.17553      64.2419 
0.000625460      2.05718      63.4349 
0.000748302      2.71116      68.3556 
0.000272570      1.76511      70.1278 
0.00204312      3.42462      67.3287 
0.000593961      2.24009      66.8686 
0.000263742      2.87924      69.6769 
0.000263112      2.78568      57.9074 
0.00118316      4.92443      66.0375 
0.00105630     0.332866      57.2648 
0.000704441      1.33701      68.0394 
0.000712723      3.08292      69.0959 
0.000679976      3.00719      61.3895 
0.000459648     0.878180      59.9314 
0.000253015      1.73954      70.5234 
0.000475429      4.81215      63.8609 
0.00101257      1.50053      68.9077 
0.000786465      2.45967      63.4349 
0.000863015      2.87235      70.0510 
0.000809433      2.79635      57.5602 
0.000461479      1.73297      71.1468 
0.000631483      2.95703      59.9667 
0.000237858     0.753923      68.1986 
0.000449074      1.60897      55.1247 
0.000893873      2.25850      67.0679 
0.000643289      4.69114      69.0151 
0.00174596      2.63492      55.8275 
0.000848547     0.888369      58.8150 
0.000404266      3.18427      63.9178 
0.000580431      4.80308      63.5416 
0.000397509      1.91039      70.4269 
0.000682462      3.27231      67.3532 
0.00121337      4.58170      65.2249 
0.000397957      1.72662      71.7749 
0.000201888      4.82100      63.6475 
0.000713155      3.07584      69.4440 
0.00125124      1.47635      54.3721 
0.000803238      1.00240      61.3895 
0.000353054     0.161245      60.2551 
0.000363350      2.70385      68.7495 
0.000542660      4.91435      65.7297 
0.000356170     0.772528      68.7495 
0.000191981      1.62049      54.5445 
0.000491297      1.12730      64.7989 
0.000187160      1.71732      63.7334 
0.000641474      2.80264      58.1246 
0.000780243      1.32966      68.8387 
0.000360076      5.07106      66.7717 
0.00100013      4.68402      69.2435 
0.000561522      1.16017      54.1179 
0.000177407      3.01529      61.9052 
0.000641914      1.72047      72.4076 
0.000436598     0.442719      71.5651 
0.000625911      2.86559      70.4269 
0.000375122      1.99970      59.3311 
0.000322260      4.59012      64.9982 
0.000172248      1.63218      53.9726 
0.000168532      1.25539      59.3493 
0.000406798      2.04919      65.1858 
0.000688007      4.75849      63.0042 
0.000444221      3.01682      61.0561 
0.000292489      4.70106      66.1613 
0.000446168      3.19312      63.5954 
0.000770874      5.07898      66.5644 
0.000540969      2.96709      59.6324 
0.000288203     0.511077      59.4208 
0.000532172      1.93598      70.0675 
0.000566337      1.67200      53.2672 
0.000297142      4.92260      65.5175 
0.000283238     0.344093      54.4623 
0.000509939      1.49345      69.6236 
0.000388537      4.83893      63.7527 
0.000146907      2.68522      68.5948 
0.000145355     0.436807      74.0546 
0.000413301      4.36884      60.9709 
0.000145119      3.09458      69.5740 
-0.00106685     0.120000      0.00000 
0.00124639      5.08944      66.8605 
0.000261278     0.765506      70.1448 
0.000662026      3.06888      69.7936 
0.00109495      3.41696      67.6381 
0.000827771      1.71453      73.0447 
0.000134767      2.74612      62.6885 
0.000693062      2.10618      59.7827 
0.000386023      4.74067      62.8944 
0.000895815     0.746726      69.6236 
0.000766585      2.67798      68.9932 
0.000130862      4.92118      64.9972 
0.000129322      3.26466      67.6771 
0.000404078      2.45080      63.8532 
0.000454955      1.11893      65.7256 
0.00105844      4.39877      66.6988 
0.000500296      2.97725      59.3003 
0.000428163      2.85895      70.8045 
0.000201360      4.56355      65.1196 
0.000237742      4.92016      64.4766 
0.000431667      4.39604      60.8694 
0.000121154      3.08765      69.9218 
-0.00101917     0.100000      0.00000 
0.000228389      3.23883      62.0108 
0.000695609      2.80713      57.2157 
0.000219453     0.483735      60.2551 
0.000512639      1.68404      52.7218 
0.000204278      1.28281      59.0362 
0.000304792      4.37858      60.7420 
0.000221898      3.22800      69.3193 
0.000544356      1.32257      69.6468 
0.000293148      3.04532      56.5187 
0.000111067      4.55517      65.3478 
0.00122903     0.144222      56.3099 
0.000106685      4.71936      66.2594 
0.000198899      5.16112      64.0307 
0.000103160      8.55095      63.0154 
-0.000685385    0.0800000      0.00000 
0.000183646      3.03434      61.2388 
0.000427304      1.92925      70.6259 
0.000190483      3.24826      61.6992 
0.000522444      4.91080      64.1655 
0.000548376      1.73632      65.5014 
0.000531883      1.38622      46.1691 
9.78727e-05      3.26098      68.7859 
0.000567373      8.54190      63.1350 
0.000237949      4.88999      66.3706 
9.38000e-05     0.356090      51.8428 
0.000721606      4.40581      60.6422 
0.000245659      1.51921      69.1791 
9.15632e-05      3.22099      69.6522 
0.000461441      2.64620      55.4692 
-0.000833482    0.0600000      0.00000 
0.000410857      4.67696      69.4726 
0.000523869      5.16991      63.8315 
0.000348930      4.53100      67.9638 
-0.000480248     0.322490      119.745 
0.000164137      1.14403      53.5308 
8.68541e-05      3.28006      67.0308 
0.000395468      2.51181      69.9779 
8.36974e-05      4.71135      66.4820 
0.000325236      1.48809      53.7462 
0.000336521      2.76391      62.8787 
0.000719802      3.06203      70.1448 
0.000843401      2.11632      59.3148 
-0.000508660    0.0400000      0.00000 
-0.00116442     0.300000      180.000 
0.000402193      1.73954      72.6067 
0.000489934      3.25779      61.3895 
0.000147595      4.82991      63.4349 
8.06746e-05      3.24672      69.4440 
0.000461743      1.69623      52.1843 
0.000500462      5.37554      63.2443 
-0.000138484      4.80833      53.7974 
0.000200306      2.50503      70.4077 
7.58739e-05      3.23975      69.7751 
-0.00118715     0.181108     -6.34019 
7.29090e-05      2.00998      58.8407 
7.22248e-05      3.28792      66.7099 
0.000830683      1.73367      73.2374 
-7.07749e-05    0.0200000      0.00000 
0.000260682      7.98889      66.3870 
0.000413863      3.40940      67.9489 
7.00048e-05      3.05640      56.2059 
-0.00101975     0.313050      116.565 
0.000127202      2.85244      71.1839 
-0.000122528      4.82017      53.6056 
0.00113510     0.477074      123.024 
-0.000672191    0.0200000      180.000 
0.000194569      3.22614      70.4417 
0.000125234     0.992975      62.4027 
0.00156988     0.101980     -101.310 
0.000475657      3.49794      64.6071 
6.54863e-05     0.372022      53.7462 
6.50892e-05      4.79270      60.2255 
0.000266466      1.92271      71.1881 
0.000927404     0.444072      7.76517 
0.000695614      8.42743      57.4037 
0.000246493      1.48661      70.3462 
0.000120561      8.59605      59.6764 
0.000156638      2.69666      69.1455 
0.000459664      2.94985      59.4360 
0.000581619      4.76542      60.3148 
0.000530076      3.88973      72.0309 
0.000199842     0.898888      57.7244 
0.000458004      2.66271      55.7131 
6.01531e-05      4.16773      67.1263 
0.000326321      1.11086      66.6660 
-0.00121196    0.0400000      180.000 
0.000497949      2.37697      59.1189 
0.000510844      7.48356      68.0280 
0.000110930      8.53288      63.2548 
5.88638e-05      3.38993      63.7373 
0.000293451     0.740000      71.0754 
0.000245486      4.16125      65.2826 
-0.00111826      3.56629      66.8858 
5.75178e-05      2.75485      63.2489 
0.000103351      8.16022      58.5305 
0.000248442      3.88479      67.9247 
5.66244e-05      3.21950      70.7771 
-0.000350837      5.28186      70.5359 
0.000244632      8.00722      66.4444 
5.58810e-05      2.67088      69.3937 
0.000106534      4.83888      63.2231 
0.000190801      5.30011      65.9497 
5.44400e-05      3.28317      67.8097 
0.000328043     0.417612      73.3008 
5.41937e-05      9.11017      59.3814 
-0.000509959      2.20952      62.5072 
5.39311e-05      2.23946      72.8597 
0.000124141      8.58597      59.7916 
0.000188798      3.75686      64.1170 
-0.000704533     0.216333     -56.3099 
0.000354276      1.40014      45.5787 
5.20687e-05      3.21297      71.1139 
5.15175e-05      4.73768      66.3568 
0.000140978      8.17511      63.2469 
-0.000496616      3.83338      57.1390 
0.000797683     0.121655      80.5377 
-0.000946996      2.19180      62.2658 
0.000212074      2.21450      73.2016 
0.000136467      2.81801      56.8738 
-0.000303808      7.92891      57.6729 
0.000181525      8.44827      66.7124 
0.000140522      3.20656      71.4520 
-0.000384140      5.33704      59.1099 
0.000284195      8.93770      62.1161 
0.000299999      3.58022      61.2874 
-0.000380907      8.16688      68.1465 
8.89046e-05      9.12037      59.2733 
0.000219107      4.37251      66.8358 
0.000123307      8.32185      55.2787 
4.65606e-05      3.39882      63.4349 
0.000363640      5.38457      63.0543 
0.000146929      4.52354      68.1986 
8.46628e-05      4.82104      63.1161 
0.000123046      1.72662      64.6223 
0.000207489      2.04088      65.6955 
0.000106246      8.30838      60.9052 
-8.64788e-05     0.304631      113.199 
0.000247403      3.20025      71.7915 
0.000175333      4.41565      60.4161 
-0.000376431      8.33422      68.6071 
0.000173260      1.48000      71.0754 
0.000109966      3.17522      63.4349 
-0.000237603     0.278568      111.038 
0.000205322      7.81877      64.5493 
7.57855e-05     0.596657      76.4296 
0.000176182      7.88923      59.5345 
-7.38711e-05      4.91203      52.9435 
0.000302552      2.96007      59.1026 
0.000248565      8.46664      66.7659 
0.000207771      3.68462      67.3323 
0.000102319      3.26741      61.0817 
7.48513e-05      8.02556      66.5014 
-0.000140456      5.28855      70.3316 
0.000174366      7.99982      68.4380 
0.000199215      3.90333      68.0350 
0.000103330      2.68961      69.5437 
3.86148e-05      9.04080      61.1670 
0.000205226     0.412311      75.9638 
-0.000295691      3.21795      55.1247 
0.000128217      5.05431      62.4210 
3.76735e-05     0.172047      35.5377 
7.21838e-05      2.82899      56.5346 
3.75853e-05      8.18413      63.1219 
-0.000310714      1.89694      65.0561 
0.000129479     0.721110      70.5600 
3.64665e-05      3.09095      60.1172 
0.000194772      1.42127      76.1593 
7.13702e-05     0.101980      78.6901 
-0.000545019     0.252982      108.435 
3.61671e-05      4.72969      66.5787 
-0.000537259     0.205913     -60.9454 
9.61582e-05      4.16965      65.0329 
0.000218423      4.05532      55.4478 
3.58343e-05      5.29199      66.1474 
3.57086e-05      9.09296      59.3172 
-0.000158385      7.91823      57.7952 
0.000157397      1.70857      51.6544 
9.53029e-05      3.16588      59.2225 
0.000277245      2.36677      59.5345 
-9.30496e-05      3.55848      67.1820 
-0.000306165      1.47648      61.6992 
-0.000303747      1.58808      73.1625 
0.000488752     0.100000      90.0000 
9.10546e-05     0.994786      59.8265 
-0.000150558      7.54236      62.0079 
3.33046e-05      8.36239      66.0097 
9.11682e-05      3.74817      64.3921 
0.000243302     0.360555     -19.4400 
-0.000295360      1.90547      64.5108 
9.09159e-05      8.33830      55.3570 
9.09464e-05      2.84605      55.3048 
8.96438e-05      8.04390      66.5582 
3.25226e-05      8.16688      58.7234 
-3.24025e-05    0.0600000      180.000 
3.22367e-05      1.18828      43.6361 
3.20144e-05      9.02095      59.3412 
6.12842e-05     0.626418      73.3008 
-6.01311e-05      9.20834      60.3169 
8.91122e-05      4.74805      66.6746 
3.16536e-05      5.28394      66.3458 
5.94374e-05      2.18403      74.0546 
3.13606e-05      1.31575      70.4633 
-0.000117163     0.200998     -5.71059 
8.70959e-05      8.35428      66.1350 
-0.000117183      3.64033      63.5757 
3.09629e-05      7.81918      60.4187 
-8.72731e-05      8.78191      57.1785 
8.61837e-05      8.94707      62.0029 
3.05442e-05      5.09733      66.6538 
3.02646e-05      4.80321      63.0082 
8.67867e-05      9.00375      59.2763 
-8.55128e-05      4.78953      69.9760 
2.96464e-05      3.05529      70.4976 
8.50620e-05      8.47717      66.9434 
-2.94989e-05      3.70135      51.5819 
-5.73212e-05     0.300666     -176.186 
0.000226921    0.0824621     -104.036 
5.60496e-05      8.46180      58.8272 
5.71971e-05     0.398497      72.4744 
2.87008e-05      8.20198      63.1850 
5.56770e-05      5.10784      66.9487 
-5.63017e-05      8.61452      56.4575 
5.59040e-05     0.484149      128.290 
2.82140e-05      5.27595      66.5447 
5.51714e-05      7.56690      63.6381 
2.81995e-05      3.48941      64.9038 
-2.80689e-05      3.62414      52.6242 
2.73693e-05      8.43822      57.2893 
2.72171e-05      1.44554      75.5792 
2.71144e-05      4.62156      60.4396 
