! Center RA: 04 18 21.28000,  Dec: +38 01 35.76000 (2000.0)
! Tentative model.
! Flux (Jy) Radius (mas)  Theta (deg)  Major FWHM (mas)  Axial ratio   Phi (deg) T \
! Freq (Hz)     SpecIndex
0.00118552      1.49773      55.8855 
0.00101944      1.09836      56.8887 
0.000470025      1.33147      57.2648 
-0.000624437      1.91416      63.9704 
-0.000592380      1.84694      72.3499 
0.000526495      7.76495      62.3789 
-0.000893502      7.39816      68.4287 
0.000137203      7.81895      62.2551 
-0.000189217      7.36098      68.3142 
0.000374976      7.89177      61.8763 
0.000363295      7.74648      62.6411 
0.000881001      1.76182      50.5275 
8.62283e-05      1.24065      69.2277 
8.59887e-05     0.526118      81.2538 
0.000359577      1.47567      57.1715 
-0.000145252      1.83521      73.5400 
0.00113693      3.16481      73.8557 
7.69219e-05      1.13208      57.9946 
0.000352692     0.632456      55.3048 
-0.000178027    0.0800000      180.000 
-0.000448129      9.24312      60.4396 
9.83535e-05      7.46126      62.1985 
-5.47612e-05      7.28670      68.0818 
7.43890e-05      3.31421      66.5290 
0.000347325      8.26482      62.9389 
0.000476691      7.40724      62.3279 
-0.000318062     0.377359      57.9946 
0.000534978      1.22703      70.9744 
-0.000605177      1.93205      62.9044 
0.000179302      3.33035      65.8978 
0.000149872     0.486621      80.5377 
-0.000381517      1.82428      74.7449 
-0.000508460      7.24961      67.9638 
-0.000123585      2.74838      68.6631 
0.000289050      3.36690      66.1757 
-0.000591730      3.16708      62.1403 
0.000275077      8.38026      60.8657 
-2.50886e-05      7.53233      67.5206 
0.000630396      7.88365      66.6869 
-0.000644336      4.09683      62.6844 
-0.000688549      1.40684      75.1735 
0.000504539      5.11249      69.8637 
-0.000172931      7.54771      67.2400 
0.000469072      4.79683      65.3583 
-0.000369934      2.94727      71.8110 
-0.000130547      2.80029      68.1986 
0.000346203      1.31027      58.7363 
-0.000559619     0.400000      53.1301 
0.000432972     0.481664      85.2364 
-0.000152930     0.120000      180.000 
0.000618899      8.25978      68.4047 
-0.000222260      8.82215      59.4818 
0.000143603      5.36656      63.4349 
2.06862e-05     0.555698      59.7436 
7.80677e-05      4.78029      65.7941 
0.000268895     0.536656      116.565 
-0.000655915      2.83746      68.4986 
3.95338e-05      8.46962      60.8928 
-0.000441759     0.344093      54.4623 
0.000411440      8.03233      56.7847 
-0.000181760      2.76810      52.6333 
0.000667351      3.40353      66.4477 
0.000343558      8.12906      58.8912 
-0.000236530      3.76085      66.1613 
0.000607178      3.09684      54.4623 
0.000267277      8.52404      60.7887 
0.000219412      3.27756      66.2505 
-0.000105599      3.79747      66.4052 
0.000232861      3.29387      65.6136 
-0.000121592      3.15087      61.1573 
0.000163124      5.20707      62.0570 
0.000520071      2.44393      68.8952 
6.41584e-05     0.576888      56.3099 
0.000528165      9.08986      59.5984 
6.01513e-05      1.21918      48.9909 
0.000224333      7.51532      62.0710 
0.000154067      8.49894      64.6410 
9.59431e-05      4.40672      66.4600 
3.23925e-05      7.91070      61.6208 
-0.000499973      4.92260      61.3524 
-8.22453e-05      2.14401      75.9638 
-0.000185670      7.60011      67.0786 
-0.000460582      4.88361      70.3777 
0.000114252      1.11140      59.7436 
-8.11458e-05      8.87036      58.4602 
0.000223634      7.65799      64.6396 
0.000248964      8.36086      61.1051 
-0.000442454      2.73642      52.1250 
0.000380487      4.62203      66.5410 
-0.000371274      3.78164      66.9606 
1.64670e-05      1.50944      57.9946 
0.000200776      4.88262      55.0080 
-1.62173e-05      4.92130      70.5341 
-0.000444050      3.17036      60.5241 
1.61236e-05      5.14820      71.4243 
-0.000337338      2.18284      76.2184 
-0.000309878      5.63929      58.3392 
0.000480360      1.72186      59.2645 
0.000259315      5.18614      71.5650 
-5.70975e-05      2.87472      68.7908 
-9.89212e-05     0.233238      149.036 
-0.000206353      8.80191      59.7061 
-0.000114732      8.89989      57.6671 
0.000392250      3.88515      61.0600 
0.000102763      4.46067      57.4500 
-0.000205097      7.80000      59.4898 
0.000152696     0.447214      10.3048 
-6.81480e-05     0.178885      153.435 
0.000174194      3.04105      54.6375 
-0.000198611      3.05287      68.4774 
-9.96228e-05      1.74264      80.7539 
9.86482e-05      5.38457      63.0543 
-0.000240061      3.33946      71.1310 
5.24756e-05     0.656049      52.4314 
0.000101152      5.18845      62.4472 
-0.000118263      3.32674      71.7829 
-0.000109190      8.48340      69.0013 
-0.000129192      9.27793      60.5615 
0.000198560     0.322490     -7.12502 
-0.000173195      8.18369      66.0659 
-0.000222466      1.42773      78.6901 
2.61622e-05      4.42285      65.9849 
0.000139832      4.91545      55.2754 
-0.000252312      8.86612      57.5288 
0.000164378      4.88410      64.2744 
0.000182641      5.42719      57.9499 
-0.000167858      2.23034      57.4500 
1.30186e-05      5.26118      61.8763 
0.000145549      8.44569      64.7700 
-8.19906e-05      2.34094      56.8530 
-0.000103736      4.07863      63.1837 
0.000132238      1.45437      58.4957 
-0.000201063      7.77977      59.7436 
-0.000145038     0.200000      143.130 
-1.22569e-05      8.14715      65.9518 
9.85133e-05      4.37008      66.2505 
-2.30743e-05      8.89134      58.2405 
-2.39656e-05      1.41760      73.6105 
0.000239469      2.40666      68.5523 
-7.63725e-05      3.39600      74.9816 
-0.000119803      8.71642      65.3167 
-0.000216503      8.07108      65.0860 
4.62894e-05      2.14663      63.4349 
4.37614e-05      4.58537      66.3420 
-0.000106648      2.57651      62.2415 
9.67797e-05     0.820731      43.0251 
-0.000116859      3.72022      53.7462 
0.000180014      2.91781      61.3269 
-1.15341e-05      1.44222      70.5600 
5.25439e-05     0.764199      83.9910 
9.77780e-05      2.20036      62.9691 
-0.000105668      1.45602      69.0755 
-7.46281e-05      8.59553      58.8991 
9.33476e-05      8.58734      56.9761 
3.12811e-05      5.15302      62.2415 
-6.20600e-05      8.23650      65.9245 
0.000122295      2.25424      62.5256 
7.16243e-05      8.01049      57.0241 
-9.16661e-05      8.45146      58.9432 
-5.07642e-05      2.39633      56.5752 
-1.04601e-05      7.21254      67.8446 
-5.03336e-05      4.11437      63.4349 
-4.03353e-05      7.20100      66.4253 
-2.01352e-05      8.93371      57.8043 
-1.03482e-05      2.76319      67.8906 
-5.01264e-05     0.912140      52.1250 
-1.02803e-05      1.95059      61.8584 
3.98210e-05      4.90159      63.8532 
3.96441e-05     0.483322      24.4440 
-1.98132e-05     0.126491      161.565 
1.00249e-05      4.60487      57.4143 
9.89027e-06      8.96330      64.3498 
-1.96442e-05      8.36612      55.3222 
9.83961e-06      7.78357      62.1180 
-1.95827e-05      1.47078      67.6199 
9.84573e-06      3.83854      56.4755 
-9.79408e-06      2.17513      57.7712 
9.76777e-06      5.44000      61.9275 
-9.75612e-06      8.96732      61.4915 
