! Center RA: 04 23 15.80073,  Dec: -01 20 33.06555 (2000.0)
! Tentative model.
! Flux (Jy) Radius (mas)  Theta (deg)  Major FWHM (mas)  Axial ratio   Phi (deg) T \
! Freq (Hz)     SpecIndex
 0.0143099    0.0400000      180.000 
-0.00174015      1.70176      156.448 
0.00194019      2.95053     -164.268 
0.00115321      2.72265     -177.474 
-0.000706641      1.43611     -167.125 
0.000732499      4.80283     -172.342 
-0.000399008      1.38852      168.366 
0.000782933      3.64198     -178.112 
0.000505753      2.90765     -172.093 
0.000243833      3.56359     -177.427 
-0.000622124      1.42042      170.272 
0.00156907      4.85370     -171.469 
0.000722613      4.75798     -172.755 
-0.000253693      1.47513     -167.471 
0.000245633      2.82305     -172.674 
-0.000539937      4.37484      175.280 
-8.28324e-05      1.76045      158.682 
0.000690084      2.68269     -177.436 
-0.000727323      4.37831      174.758 
0.000961707      3.30261     -163.101 
0.000616348      2.94727     -172.200 
0.000479678      3.76085     -178.781 
-0.000714170      1.42773     -168.690 
-0.000329716      1.78393      160.346 
0.000526857      3.70448     -155.095 
0.00116852     0.605310      97.5946 
0.000460204      2.45569     -167.775 
-0.000167993     0.848528      135.000 
0.000895576      3.02576     -155.807 
0.000589514      2.27543     -169.875 
0.000585518    0.0800000      180.000 
0.000289630      3.28877      175.815 
0.000592608      3.38325     -155.556 
0.000641054      3.99400      172.519 
-0.000857140      2.00998     -148.841 
-0.000474401     0.877268      136.848 
0.000347042     0.233238      30.9638 
0.000772026      3.49468      174.746 
-0.000329949     0.590593      151.699 
-0.000700105     0.411825     -150.945 
-0.000404765     0.430813      111.801 
2.89755e-05     0.268328     -26.5651 
0.000666576      5.25525     -175.635 
0.000333635      4.71830     -172.694 
0.000129020      3.55550     -162.992 
0.000121959     0.233238     -30.9638 
0.000260837      4.85979     -171.003 
-0.000173250      1.38101      169.992 
0.000285983      3.68196     -178.132 
-2.63700e-05      1.79778      159.146 
0.000469873      4.36165      178.423 
-0.000766798      5.16062     -179.112 
7.10064e-05      3.93731     -159.171 
0.000389741     0.226274      45.0000 
0.000575880      2.06495      171.085 
-0.000332826     0.555698      149.744 
2.42620e-05      3.72086     -178.768 
-0.000137585      1.29553     -171.119 
0.000567783     0.720000      90.0000 
0.000331435      3.59377     -163.179 
0.000107511    0.0400000     -90.0000 
0.000210858      1.65747     -160.253 
-0.000268151      4.11825     -155.925 
0.000272217     0.533667      167.005 
0.000175650      3.89995     -158.962 
-0.000393027      2.60768     -138.731 
0.000152279      3.74080     -155.353 
0.000419274     0.200000      53.1301 
-0.000351277     0.447214      116.565 
-0.000175836      3.80337      177.589 
0.000150609      1.70880     -159.444 
1.99830e-05     0.494773      165.964 
0.000193702     0.411825      60.9454 
-0.000256537     0.521536      147.529 
0.000284553     0.447214      169.695 
-0.000314541      4.21046     -165.700 
5.34297e-05     0.178885     -26.5651 
-0.000190139      4.10210     -156.435 
6.88249e-05      2.64273     -177.397 
-0.000257355      3.23110     -148.671 
0.000153582      4.40073      178.958 
0.000136946      2.98690     -172.304 
1.83666e-05    0.0565685     -45.0000 
-5.42897e-05      3.05941     -168.690 
-0.000102873     0.920869      177.510 
0.000102851      1.61988     -159.775 
0.000186013      2.07152      169.992 
-0.000100929      4.08176     -155.695 
-6.95654e-05      3.84187      178.210 
9.93773e-05      4.07372     -160.498 
-0.000116559      3.09864     -168.835 
6.55540e-05      1.67141     -158.962 
-4.92964e-05      2.27438     -145.751 
-0.000113817      3.32024     -179.310 
4.96399e-05      3.86264     -158.749 
-3.28181e-05      1.09252     -156.251 
-8.07991e-05     0.488262      145.008 
-4.83903e-05      3.80189      178.191 
4.80515e-05      3.89667     -174.699 
-3.19103e-05      2.29085     -155.225 
1.57875e-05      3.82539     -158.532 
1.56132e-05      1.86462     -157.286 
