! Center RA: 07 21 53.44848,  Dec: +71 20 36.36340 (2000.0)
! Tentative model.
! Flux (Jy) Radius (mas)  Theta (deg)  Major FWHM (mas)  Axial ratio   Phi (deg) T \
! Freq (Hz)     SpecIndex
-0.00113628    0.0565685     -135.000 
-0.00315041    0.0400000      180.000 
-0.00376799    0.0400000     -90.0000 
0.00291080     0.203961      11.3099 
0.000213665     0.538145      41.9872 
0.00139691     0.512250      38.6598 
-0.00416878     0.268328      63.4349 
0.00188530     0.509117      45.0000 
0.00454081     0.164924      14.0362 
0.000676961     0.544059      36.0274 
-0.00382742      0.00000      0.00000 
-0.000640478      2.43606      29.5115 
0.000436148     0.626099      26.5651 
-0.00133269      2.03843      15.9454 
-0.00102258      2.16518      25.1448 
0.00115734      2.98610      39.0194 
-0.00209264      2.72118      24.3045 
-0.000513452      1.12285      4.08562 
-0.000613280     0.304631      66.8014 
0.000250215     0.662118      25.0169 
0.00101747      2.54244      12.7244 
-0.000891808      2.45601      30.3236 
-0.00117960     0.557136      68.9625 
-0.000921325      1.16069      1.97493 
3.24670e-05     0.590593      28.3008 
0.000234323      2.72029      19.7672 
0.000834261     0.555698      30.2564 
0.000302953      2.68715      45.6031 
-0.000102801      2.40133      29.9816 
-0.00129242    0.0565685     -45.0000 
0.000661856      2.83746      21.5014 
0.000466297      2.40033      23.5747 
-0.000865031      2.62937      33.2066 
0.000451121     0.481664      48.3665 
0.000591877      2.71529      45.0000 
-0.000436338      1.23223      13.1340 
0.00111957     0.282843      98.1301 
0.000259237     0.582409      15.9454 
0.000605276      2.32757      19.0577 
0.000325929      1.44056     -1.59114 
0.000255267     0.906863      48.5763 
-0.000212914      1.49345      20.3764 
0.000549281      2.63059      28.1237 
0.000275529      2.64968      28.8866 
0.000432909      2.44884      38.3675 
0.000500762      2.38462      22.6938 
9.29911e-05     0.644981      29.7449 
-0.000611659     0.113137      135.000 
0.000272682     0.144222     -146.310 
-0.000336349     0.215407      68.1986 
0.000304058      1.56205      2.93567 
0.000427882      2.85237      22.2490 
0.000252493      2.96108      38.4181 
0.000200966      1.48054     -1.54816 
0.000656665     0.126491     -161.565 
0.000143000     0.933809      46.7357 
-0.000255186     0.987927      21.3706 
-0.000225566      1.12071     -2.04541 
0.000290960     0.160000      0.00000 
8.86031e-05      2.64273      39.4725 
4.60611e-05     0.905097      45.0000 
-6.07137e-05      1.51789      18.4349 
0.000126145      2.48805      36.5014 
-3.05445e-05     0.379473      18.4349 
0.000205055      2.54024      26.1616 
-0.000195858     0.329848      14.0362 
-4.07256e-05      1.41365      25.1148 
0.000373237     0.126491      18.4349 
-0.000199562      2.21269      12.5288 
-0.000146345      1.54402      16.5571 
0.000118140      1.98595      9.27260 
1.41941e-05     0.850412      41.1859 
0.000130559     0.824621      39.0939 
6.57815e-05      1.98635      25.0169 
2.57318e-05      2.66833      40.1355 
-0.000111897     0.322490      7.12502 
-3.73835e-05      1.78885      10.3048 
-1.25973e-05     0.341760      69.4440 
3.69534e-05      1.98595      27.5973 
-2.45726e-05      1.75454      24.2277 
3.67023e-05     0.203961     -11.3099 
1.21274e-05      2.08806      20.1707 
