! Center RA: 17 51 32.81857,  Dec: +09 39 00.72829 (2000.0)
! Tentative model.
! Flux (Jy) Radius (mas)  Theta (deg)  Major FWHM (mas)  Axial ratio   Phi (deg) T \
! Freq (Hz)     SpecIndex
   3.11367      0.00000      0.00000 
  0.226635    0.0200000      0.00000 
 0.0156464    0.0894427      26.5651 
 0.0289405    0.0282843     -135.000 
 0.0400814     0.134164      26.5651 
 0.0359975    0.0447214     -153.435 
 0.0412913     0.152315      23.1986 
 0.0103414    0.0632456     -161.565 
 0.0270165    0.0721110     -146.310 
 0.0312069     0.170880      20.5560 
 0.0210949    0.0824621     -165.964 
 0.0133265    0.0894427     -153.435 
 0.0238631     0.189737      18.4349 
 0.0329245     0.101980     -168.690 
 0.0142917     0.208806      16.6992 
0.00419700     0.228035      15.2551 
 0.0111965     0.243310      9.46232 
 0.0310400     0.121655     -170.538 
 0.0174529     0.263059      8.74616 
 0.0238170     0.300666      3.81407 
 0.0181868      1.13137      8.13010 
 0.0275709     0.141421     -171.870 
0.00450359     0.746726      7.69605 
0.00167456     0.710211      9.72758 
0.00162273      1.08167     -3.17983 
0.00613598     0.690507      10.0080 
0.00152202     0.172047      35.5377 
0.00288740      1.10164     -3.12213 
0.00146037      1.24145      2.77022 
0.00297483      1.26063      1.81830 
0.00574916     0.156205      39.8056 
0.00231757      1.13437      9.13018 
0.00899948     0.320624      3.57633 
0.00237524      1.10291     -4.15964 
0.00392025      1.28016     0.895174 
0.00103737      1.10454     -5.19443 
0.00101274     0.784092      5.85601 
0.000935613      1.15741      9.95063 
0.000918119      1.12446     -5.10217 
0.00121524     0.670820      10.3048 
0.00164842      1.20830      12.4259 
0.000851219     0.822192      4.18492 
0.00156123      1.12641     -6.11550 
0.00195840      1.14856      7.00127 
0.00643339     0.616117      13.1340 
0.000790014      1.30015     0.881404 
0.00162493     0.802247      4.28915 
0.000744467      1.32000      0.00000 
0.00343722      1.21277      13.3487 
 0.0154392     0.161245     -172.875 
0.000691316      1.36015    -0.842524 
0.000675650      1.14856     -7.00127 
0.00241655     0.605310     -7.59464 
0.00183142     0.160000      180.000 
0.000648865      1.38232     -3.31778 
0.000623175      1.28996     -7.12502 
0.00168518      1.26143      2.72631 
0.00328703     0.141421      45.0000 
0.00112285      1.38362     -4.14462 
0.000576138      1.12872     -7.12502 
0.000545394      1.30981     -7.01650 
-0.00106102     0.228035     -142.125 
0.00314723     0.625140     -7.35238 
0.000527689      1.40129     -2.45403 
-0.0163166     0.212603     -138.814 
0.000500797      1.29259     -8.00473 
0.000478155     0.302655      7.59464 
0.000474902      1.54208      2.97373 
0.000467828      1.10887     -7.25319 
0.000462984      1.40228     -3.27049 
0.00117427      1.19817      14.5002 
0.000432982      1.56205      2.93567 
0.000766955      1.31240     -7.88314 
0.00178456      2.23141      14.5345 
0.00118943      1.63414      21.5410 
0.00219107     0.282843      8.13010 
0.00105781      1.08904     -7.38604 
0.000407148      1.42225     -3.22452 
0.000402900      2.19791      15.3008 
0.000393114      1.24065      1.84761 
0.000383379      1.58114      2.17474 
0.000678602      1.42352     -4.02826 
0.000688834      1.22066      1.87788 
-0.0136302     0.331059     -25.0169 
0.000978183      1.60112      2.14759 
0.00203999      1.62308      22.4569 
0.000341029      1.31529     -8.74616 
0.000321988      1.06921     -7.52382 
0.000571699      1.05224      8.74616 
0.00100506     0.128062      51.3402 
0.000305385     0.651153      10.6197 
0.000850377      1.20067      1.90915 
0.000485134      1.38521     -4.96974 
0.000901571      1.21754      14.2645 
0.000286733     0.596657      13.5704 
0.000282802      1.62111      2.12110 
0.00161621      2.21206      14.6645 
0.000272640     0.782304      4.39871 
0.000268996      1.40513     -4.89909 
0.000955039      1.66048      1.38035 
0.000509584     0.577235      14.0362 
0.000702216      1.33222     -7.76517 
0.00142507      1.20017     0.954841 
0.000240736     0.744312      6.17017 
-0.00442965     0.268328      153.435 
0.000237225      1.95028      13.0387 
0.00125759      1.66433      32.7352 
0.000426892     0.762365      4.51399 
0.000216642     0.631506      10.9541 
0.000208432      1.01607      10.2040 
0.000373894      1.40357     -4.08562 
0.000552985     0.557853      14.5345 
0.00116901      1.78000      0.00000 
0.000373759      1.48661      5.40379 
0.000373163     0.116619      59.0362 
0.000641814     0.996394      10.4077 
0.000979606      2.04000      28.0725 
0.000350240     0.724431      6.34019 
0.000595190     0.107703      68.1986 
0.00285759     0.501199     -28.6105 
-0.00197382     0.715542     -26.5651 
0.00145221     0.509902     -25.5600 
0.00125487     0.742428      4.63546 
0.000782231      1.07201     -8.58362 
0.00112871      2.75347      11.3099 
-0.00109737      1.87115     -10.4692 
0.000368765      1.18017     0.971022 
0.000143314      1.43136      7.22432 
0.000701724      1.47851      30.0333 
-0.000138679      2.36305      2.91084 
0.00195983     0.320000      0.00000 
0.000135074      2.58062      14.3593 
0.000366708      1.32966     -6.91123 
0.000810279      1.82011    -0.629599 
0.000247208      1.39442      8.24632 
-0.00166411     0.197990     -135.000 
-0.000478071      2.38411      3.36646 
0.000244064      2.24589      13.9125 
0.000352378     0.101980      78.6901 
0.000125296      1.85224      24.9048 
-0.000974774      1.10018      27.0309 
0.000120998      1.28655      11.6593 
0.000331808      1.65855      33.6901 
0.000120260      1.59662     -12.2953 
-0.00128814     0.697711     -27.2996 
0.000536083     0.992975      9.27260 
0.000210509      2.60000      14.2500 
0.000413374     0.400000      36.8699 
0.000310204      1.61617     -12.1443 
-0.000307768      2.36415      3.39492 
0.000108768      1.37768      9.18884 
0.000208251      2.22648      14.0362 
0.000208402      1.70082      41.1859 
0.000203353      1.34729     -5.96449 
0.000208936     0.126491     -161.565 
0.000102871      1.96977      12.9074 
0.000102153      1.35794      9.32359 
0.000196788      1.04403     -20.1707 
0.000194216     0.100000      90.0000 
9.81233e-05      2.77308      11.2289 
-0.000193775     0.254558      45.0000 
