! Center RA: 12 29 06.69973,  Dec: +02 03 08.59828 (2000.0)
! Established model.
! Flux (Jy) Radius (mas)  Theta (deg)  Major FWHM (mas)  Axial ratio   Phi (deg) T \
! Freq (Hz)     SpecIndex
   2.55496      0.00000      0.00000 
  0.323916    0.0200000     -90.0000 
  0.482515    0.0282843     -135.000 
  0.108155    0.0848528      45.0000 
  0.557493     0.128062      51.3402 
  0.273406     0.384187      51.3402 
 0.0958924    0.0447214     -116.565 
  0.438766    0.0565685     -135.000 
  0.152717     0.425206      48.8141 
  0.142978     0.141421      45.0000 
 0.0695274     0.328024      52.4314 
  0.127876     0.453431      48.5763 
 0.0626362     0.156205      50.1944 
 0.0601872    0.0721110     -123.690 
  0.271335     0.300000      53.1301 
  0.318105     0.481664      48.3665 
  0.441537    0.0848528     -135.000 
  0.205240     0.272029      53.9726 
 0.0851656     0.495177      46.6366 
 0.0728623     0.113137      45.0000 
  0.139000     0.509902      48.1798 
 0.0393383     0.100000     -126.870 
  0.191447     0.523450      46.5482 
 0.0768498     0.116619      59.0362 
 0.0559802    0.0894427     -116.565 
 0.0141928     0.161245     -172.875 
 0.0237612     0.180000      180.000 
 0.0108869     0.152315      23.1986 
 0.0448771     0.200000      180.000 
 0.0190672     0.184391      12.5288 
0.00935734     0.107703     -111.801 
 0.0719816      2.22036     -135.365 
 0.0225749     0.203961      11.3099 
0.00842582      2.22081     -141.582 
 0.0214837     0.101980     -101.310 
0.00794554      2.20518     -141.259 
0.00768740     0.107703      68.1986 
 0.0145822      2.19272     -141.667 
 0.0401329     0.220000      180.000 
 0.0233123      2.17706     -141.340 
0.00635096      1.98040     -141.973 
 0.0391651     0.223607      10.3048 
0.00591793      1.99620     -142.326 
0.00901387      2.14895     -141.423 
 0.0190683     0.340588      49.7636 
 0.0196279     0.126491     -108.435 
 0.0106786      1.98404     -142.784 
0.00487688      2.20617     -135.000 
0.00935375      1.98806     -143.591 
 0.0123416      2.28954     -141.028 
0.00891589     0.240832     -175.236 
0.00462519      2.06155     -140.906 
 0.0161934      2.22036     -134.635 
 0.0279300      2.10523     -141.170 
0.00430801     0.312410      50.1944 
 0.0183328      1.99249     -144.395 
 0.0148702     0.784092     -142.253 
0.00778765     0.652993     -117.350 
 0.0131505     0.461736     -162.350 
 0.0234263     0.240000      180.000 
0.00372000     0.300000     -126.870 
0.00362869     0.436807     -164.055 
0.00672124      2.23464     -134.275 
 0.0361037     0.680000     -118.072 
 0.0352090     0.243310      9.46232 
0.00649945      1.20880     -141.044 
0.00930158      5.12035     -142.459 
0.00307267      2.27403     -140.711 
 0.0108684      2.26292     -134.284 
 0.0122160      4.90820     -142.616 
0.00946963      2.08969     -140.826 
 0.0115134     0.220907      174.806 
0.00289267      1.18068     -141.189 
0.00553725      1.98091     -144.866 
0.00529458      4.93737     -139.600 
0.00272185      2.14960     -135.000 
0.00716159     0.121655     -99.4623 
0.00496528      1.14018     -142.125 
0.00497446      2.30217     -140.641 
0.00441002     0.480833     -163.072 
0.00663140      1.23693     -140.906 
0.00868983      1.96459     -144.530 
0.00461820      5.13622     -142.595 
0.00659198     0.456070     -164.745 
0.00621503      4.92215     -139.449 
0.00232640      4.88016     -142.660 
0.00516774     0.288444     -123.690 
0.00430513      2.13551     -134.621 
0.00224439      4.55126     -139.098 
0.00792815      2.29120     -134.293 
0.00214168      4.56438     -138.909 
0.00716474      4.53617     -138.933 
0.00381527      2.36136     -141.189 
0.00533232      5.18015     -142.688 
0.00193160      4.89608     -142.802 
0.00187091      4.25417     -141.298 
0.00186474      2.10723     -134.615 
0.00488082      1.12801     -142.927 
 0.0128197      1.95305     -145.008 
0.00895291      1.26507     -140.774 
0.00172124      4.19795     -141.383 
0.00322999      2.09323     -134.226 
 0.0111516      3.91065     -141.020 
0.00166791      1.89526     -135.855 
0.00978737     0.475395     -165.379 
0.00318600      2.43647     -142.001 
0.00166351      4.54933     -138.743 
0.00841307      4.92410     -142.758 
0.00894462      5.18097     -137.503 
0.00306034      2.30521     -134.648 
0.00157077      4.57755     -138.720 
0.00524705      1.88096     -134.569 
0.00154781      4.28229     -141.257 
0.00284135     0.557136     -111.038 
0.00149427      5.61320     -141.946 
0.00649225      5.19608     -142.821 
0.00523688      1.86698     -134.132 
0.00140467      2.48032     -142.206 
0.00256770      4.31041     -141.216 
0.00389512      4.86621     -136.332 
0.00136945      2.07933     -133.831 
0.00380834      5.62896     -142.071 
0.00133812      4.50795     -138.958 
0.00133598      2.31931     -135.000 
 0.0103792      3.45190     -140.407 
0.00132032      5.15271     -137.517 
0.00130393      2.16462     -141.754 
0.00437883      4.16984     -141.426 
0.00242600      1.96825     -132.117 
0.00239113      2.49616     -142.487 
0.00291676      4.63400     -138.674 
0.00224819      2.36178     -135.343 
0.00327352      5.56216     -139.667 
0.00117742      2.33324     -141.263 
0.00795535     0.531413     -109.799 
0.00112014      4.60578     -138.697 
0.00275444      2.12085     -141.509 
0.00937829      3.75089     -137.377 
0.00110319      2.34759     -135.000 
0.00515734      4.15740     -141.642 
0.00108574      1.95489     -131.682 
0.00107919      4.85176     -136.169 
0.00239046     0.948683     -124.695 
0.00217371      4.61684     -142.038 
0.00419551      3.39458     -135.955 
0.00277753      5.64475     -142.196 
0.00354656      2.30512     -141.340 
0.00188525      4.23703     -138.636 
0.00191628      1.92666     -131.634 
0.00100903      4.88004     -136.162 
0.00273614      2.51205     -142.765 
0.00412932     0.316228     -124.695 
0.000970243      2.19754     -130.941 
0.00242131      2.18037     -142.079 
0.000954659      4.69421     -144.888 
0.00254082      1.94165     -131.241 
0.00448902      5.57512     -139.510 
0.00251877      5.19450     -137.340 
0.00173028      4.90832     -136.156 
0.00166738      4.98754     -145.290 
0.000903762      2.37605     -135.682 
0.000901510      4.45152     -139.008 
0.000892828     0.260768     -175.601 
0.000880177      2.18449     -130.544 
0.00586248     0.937443     -123.690 
0.00299823      4.71058     -145.028 
0.00664527      1.95816     -145.823 
0.00508125      1.30874     -141.203 
0.00148850      5.01538     -145.233 
0.00284415      4.48361     -134.096 
0.00154432      2.17154     -130.143 
0.000801078      5.20922     -137.490 
0.00150311      2.40483     -136.348 
0.00148471      4.25027     -138.434 
0.000764149      4.89391     -135.993 
0.00144069      5.63251     -142.357 
0.00329411     0.494773     -165.964 
0.00325512      3.60139     -144.721 
0.00201658      1.92852     -130.795 
0.00131672     0.101980      101.310 
0.00135074      1.29321     -140.648 
0.000704092      2.22423     -142.306 
0.00131697      5.00400     -145.421 
0.000694978      2.52800     -143.039 
0.00183235      5.19577     -139.997 
0.000684611      5.23633     -137.167 
0.00520610     0.266833      12.9946 
0.00414301      3.36630     -135.963 
0.000674404      4.85127     -135.835 
0.000672088     0.328024     -127.569 
0.00187589      2.15870     -129.738 
0.00290065      1.55666     -132.917 
0.00108053      5.15213     -142.730 
0.000657657      3.43651     -140.194 
0.00364971     0.240832      175.236 
0.00141917     0.670820     -116.565 
0.00117585      1.91343     -131.186 
0.000639418      5.33217     -139.259 
0.00118938      4.99380     -136.460 
0.00116072      2.55601     -142.951 
0.00285946      3.12026     -143.865 
0.000612955      4.26525     -138.612 
0.000613398      2.41934     -136.675 
0.00117547      5.64836     -142.481 
0.00246336      3.06307     -139.236 
0.00109395      4.82299     -135.840 
0.00462805      2.35593     -130.179 
0.00215838      5.03182     -145.362 
0.00159279      5.34734     -139.399 
0.000575365      4.68273     -145.088 
0.00142462      5.23534     -136.858 
0.00200754      4.46972     -133.912 
0.000562306      5.21202     -142.954 
0.000557725      4.40822     -138.863 
0.000558624      2.32775     -130.121 
0.000553471      2.86356     -138.965 
0.00374171      3.61773     -144.904 
0.00233155     0.800000     -143.130 
0.00101627      4.90494     -138.968 
0.00185470      4.69915     -145.228 
0.000517937      2.14597     -129.327 
0.00238317      5.17880     -133.122 
0.00271778      4.29348     -138.588 
0.000502276      5.67641     -142.444 
0.000499289      5.09592     -130.065 
0.000496069      1.91552     -130.342 
0.000495384      5.34838     -142.444 
0.00423778      3.80636     -133.084 
0.00263852      2.57200     -143.219 
0.000920682      5.06774     -130.037 
0.00167878      1.90263     -129.883 
0.00333843      1.96947     -145.342 
0.00291588      5.04829     -145.491 
0.00115512      4.97932     -136.302 
0.00289385      1.54311     -132.374 
0.000465772      5.15053     -133.112 
0.000464595      5.25601     -143.043 
0.00122258      2.84851     -138.701 
0.000459564      5.58813     -139.354 
0.000453871      5.05490     -129.864 
0.000452843      5.59607     -142.843 
0.000831218     0.107703      111.801 
0.000834621      2.09275     -128.403 
0.00182327      2.04607     -140.553 
0.000430046      5.18046     -139.855 
0.000429458      5.72031     -142.529 
0.000810269      5.16515     -132.960 
0.00138232     0.524976      49.6355 
0.00159638      4.98578     -129.629 
0.00176510      5.60332     -139.487 
0.00152393      5.56805     -142.883 
0.000747746      4.47035     -133.550 
0.000395262      4.43644     -138.838 
0.000387812      4.35412     -141.340 
0.00138897      5.16519     -139.712 
0.00200332      3.63412     -145.085 
-0.00350902     0.295296     -28.3008 
-0.00330375     0.501597     -85.4261 
0.000374596      5.10819     -142.637 
0.000681367      4.78038     -135.678 
0.000371687      3.92622     -141.203 
0.000369551      4.07946     -129.230 
0.00129951      4.71559     -145.366 
0.000362163      5.08307     -129.892 
0.00128795      3.35195     -135.725 
0.00127018      2.02800     -126.983 
0.000691984      4.94490     -129.420 
0.000350667      1.14403     -143.531 
0.000350249     0.550273     -109.093 
0.000349665      4.96488     -145.670 
0.000349080      4.06684     -129.012 
0.000345505      5.73620     -142.651 
0.000342499      5.03659     -136.609 
0.00128099      4.37639     -129.437 
0.00155364      4.09453     -145.146 
0.00277420     0.524976     -107.745 
0.000656444      2.34307     -129.806 
0.000637604      5.58401     -143.007 
0.00154952     0.203961      168.690 
0.000957950      5.06478     -145.620 
0.00121568      4.06989     -128.616 
0.000325577      1.88043     -128.089 
0.000326152      5.09231     -142.500 
0.00119951      3.09231     -143.945 
0.00149153      4.93222     -129.240 
0.000613085      5.76423     -142.613 
-0.00209414     0.320624      86.4237 
0.00117558     0.331059     -64.9831 
0.000601351      5.55601     -143.048 
0.000312524      2.80528     -138.468 
0.000308026      1.86815     -127.606 
-0.000892878     0.240832      131.634 
-0.00174244     0.402492     -116.565 
0.000873056      5.14995     -139.568 
0.000576729      4.32171     -138.565 
0.000589823      3.86683     -145.324 
-0.00116573     0.662420     -151.113 
-0.000586385      5.36660     -132.130 
0.000296897      4.66223     -138.652 
0.000292926      4.92057     -145.599 
0.000291503      1.52118     -140.870 
-0.000565430     0.521536     -175.601 
0.000283838      4.36096     -129.604 
0.000281719      5.09258     -145.561 
0.000278396      5.54004     -142.923 
0.000273960      1.13225     -144.345 
