! Center RA: 12 56 11.16657,  Dec: -05 47 21.52481 (2000.0)
! Tentative model.
! Flux (Jy) Radius (mas)  Theta (deg)  Major FWHM (mas)  Axial ratio   Phi (deg) T \
! Freq (Hz)     SpecIndex
  0.143859     0.268328     -153.435 
  0.193540     0.288444     -146.310 
  0.134963     0.304631     -156.801 
-0.00450108      4.55386     -134.644 
-0.0152278      4.58205     -135.000 
-0.00131254      4.49729     -134.640 
-0.00622718     0.282843      98.1301 
-0.000401910      4.27177     -133.862 
-0.00146991      4.18760     -133.452 
-0.00251510     0.920869     -124.380 
-0.00189767      4.63862     -135.000 
-0.00158127      4.16019     -133.052 
-0.00300299     0.937230     -129.806 
-0.000319110      4.66699     -135.347 
-0.0112980     0.280000      90.0000 
-0.00207796      4.72356     -135.343 
-0.00185049      4.13299     -132.647 
-0.00295861      4.69519     -135.000 
-0.00521934      1.78885     -169.695 
-0.00251889     0.963328     -131.634 
-0.00119815      1.86118     -171.347 
-0.00224025      4.10600     -132.236 
0.000233428     0.684690     -173.290 
0.000228124     0.724431     -173.660 
0.000225360     0.233238     -149.036 
0.000878263     0.880909     -177.397 
0.000220279     0.200000     -143.130 
0.000424715     0.169706     -135.000 
0.00103002     0.920869     -177.510 
0.000408465     0.144222     -123.690 
-0.000401449      5.06486     -136.600 
0.000584032     0.126491     -108.435 
0.000959309     0.960833     -177.614 
-0.00548527     0.990353     -133.363 
0.000733245     0.120000     -90.0000 
0.00156859      1.00080     -177.709 
-0.000520369      5.15053     -136.888 
-0.000175255      6.25140     -134.222 
0.000848402     0.126491     -71.5651 
-0.00189126      3.14197     -121.464 
-0.000758544      6.27936     -134.484 
-0.000165514      4.64414     -137.793 
0.000784957      1.04077     -177.797 
0.00107348     0.144222     -56.3099 
-0.000161892      4.07922     -131.820 
-0.000613742      4.64724     -138.489 
0.000618997     0.480000     -90.0000 
-0.000157843      4.66699     -134.653 
-0.000304645      5.12141     -136.582 
0.000841933      1.06283      19.7989 
-0.00507007     0.252982      71.5651 
0.000853891      1.00319     -175.426 
-0.000283006      4.05265     -131.399 
0.000284379     0.481664     -94.7636 
-0.000143949      4.67726     -138.814 
0.000953944      1.53310     -105.124 
0.00171415    0.0894427     -63.4349 
-0.000142484      4.69553     -134.310 
-0.000268772      5.09243     -136.273 
-0.000276400      4.65102     -139.185 
-0.000266737      4.66768     -133.958 
0.000642251      1.04307     -175.601 
-0.00120921      4.02631     -130.972 
0.000263615     0.521536     -85.6013 
-0.000512558      4.68137     -139.505 
0.00177073      2.06184     -161.917 
-0.000127710      6.30746     -134.743 
0.00104969     0.520000     -90.0000 
0.00105313      1.56205     -103.325 
-0.000352194      5.06360     -135.960 
-0.000511906      7.39135     -132.149 
-0.00233115      4.71186     -139.821 
0.000235363      1.02528      20.5560 
0.00223710     0.113137     -45.0000 
-0.000645489      3.12128     -120.838 
0.000569631      1.08296     -175.764 
-0.00311832      1.74951     -169.461 
-0.000983643      6.58167     -130.564 
-0.000327659      5.18907     -130.937 
-0.000327062      3.54469     -139.118 
-0.000214654      9.16079     -126.119 
-0.00340647      1.01980     -138.180 
-0.000220320      4.00020     -130.539 
-0.00198591      8.15470     -122.989 
0.000909511     0.809938      110.225 
-0.000209850      8.02117     -141.072 
0.000513207      1.12285     -175.914 
-0.000106187      4.64000     -133.603 
0.00178151      1.57175     -104.744 
-0.000529844      7.89096     -144.699 
-0.000813019      1.41421      151.260 
0.00247202      2.12641     -163.610 
-0.000653042      4.74249     -140.133 
0.000739297     0.521536     -94.3987 
-0.000704345      8.67115     -140.804 
-0.000351477      5.03492     -135.644 
-0.000196994      3.51454     -138.691 
-0.00139414      6.55573     -130.298 
-9.81806e-05      8.07743     -141.030 
0.000638996      1.16276     -176.055 
-9.56979e-05      4.69655     -133.620 
-0.00137059      9.13061     -120.835 
-0.000518226      8.10856     -141.208 
-0.00404221     0.268328      63.4349 
0.00185184     0.144222     -33.6901 
-0.000950505      2.51873     -133.069 
9.18814e-05     0.930376      25.4633 
-0.000172896      5.16294     -130.601 
-9.15090e-05      9.10490     -126.064 
-0.00191984      4.39090     -156.938 
-0.000163303      3.13560     -119.836 
0.000629637      1.20266     -176.186 
0.00103291      2.78338     -97.4314 
-0.000239918      6.42246     -129.440 
0.000735054     0.526118     -98.7462 
-0.000156466      9.08141     -125.860 
-0.000418046      5.75027     -119.597 
-0.000305298      2.49159     -132.397 
0.000153482     0.894427      26.5651 
0.000438579      9.80269     -131.692 
-0.000459546      6.31569     -128.830 
-0.000359827      8.13978     -141.384 
0.00139686      8.40847     -132.494 
-0.000356125      6.10128     -117.741 
0.000147814      9.49754     -138.928 
0.000502889    0.0400000     -90.0000 
0.000146669      8.43554     -132.694 
-0.000421251      8.66561     -140.431 
-0.00115983      2.54810     -132.455 
-0.000138132      5.00640     -135.324 
0.00107612      9.52773     -139.086 
-0.000579330      7.36456     -131.918 
-0.000258292      3.10097     -120.203 
0.000277710      1.58240     -106.144 
0.000837546     0.610574      58.3925 
0.000334495      1.24258     -176.309 
-0.000268458      9.02556     -125.803 
0.000876436      2.08806     -163.301 
0.00142537    0.0565685     -45.0000 
0.000919073      2.08614     -147.529 
0.000737487      9.74622     -131.673 
-0.000602874      8.63481     -140.262 
-0.000540504      6.06590     -117.917 
0.000260671      1.13137     -98.1301 
0.000787531     0.533667     -102.995 
-0.000365424      8.17107     -141.559 
-0.000295849      4.13105     -133.431 
-0.000353357      1.40911     -6.51980 
0.000364373      1.12641     -96.1155 
-6.19159e-05      9.00222     -125.597 
-0.000348679      9.53386     -133.810 
-0.000345212      1.64000     -167.320 
-5.99711e-05      4.97803     -135.000 
-0.000230769      2.24321     -129.936 
0.000343737      4.48018     -150.001 
0.000114840      1.28250     -176.424 
0.000283675      1.12285     -94.0856 
0.000113199      10.7332     -137.870 
0.000169621     0.590593      61.6992 
-0.000112859      8.74309     -145.437 
5.63652e-05      2.77849     -96.6135 
5.49157e-05      1.87361     -16.1134 
