! Center RA: 12 29 06.69973,  Dec: +02 03 08.59828 (2000.0)
! Tentative model.
! Flux (Jy) Radius (mas)  Theta (deg)  Major FWHM (mas)  Axial ratio   Phi (deg) T \
! Freq (Hz)     SpecIndex
-0.00198351      16.5787     -122.386 
-0.00114053      16.6217     -122.619 
-0.00269412      16.8078     -121.572 
-0.00181888      16.5112     -122.535 
-0.00267679      16.0272     -121.945 
-0.00254780      16.4438     -122.685 
-0.00342614      16.9179     -121.661 
-0.000906354      16.5544     -122.769 
-0.00156246      15.9850     -121.701 
-0.00225224      15.8749     -121.608 
-0.00468607      16.6296     -121.626 
-0.00153928      16.9860     -121.519 
-0.00152729      16.4872     -122.919 
-0.00403468      17.0961     -121.608 
-0.000722865      16.3766     -122.836 
-0.000717912      16.6978     -121.482 
-0.000903412      15.8068     -121.759 
-0.00136155      16.4201     -123.071 
-0.000672812      15.7649     -121.512 
-0.000649434      16.0114     -121.307 
-0.000670324      15.7389     -121.913 
-0.000632451      16.5079     -123.536 
-0.000622071      16.0798     -121.159 
-0.00121263      14.8440     -123.347 
-0.000613144      16.7523     -123.311 
-0.000609065      15.6710     -122.067 
-0.00105472      14.7333     -123.259 
-0.00118564      17.1226     -121.239 
-0.000599217      16.0386     -120.915 
-0.000589269      16.4413     -123.690 
-0.00114028      14.9686     -121.226 
-0.000576882      16.8631     -123.389 
-0.00215247      14.6664     -123.430 
-0.000572306      16.1072     -120.769 
-0.000568360      15.6549     -121.416 
-0.00110595      16.4195     -124.077 
-0.00162920      17.1911     -121.101 
-0.00264874      11.4151     -121.239 
-0.000549219      16.9517     -123.840 
-0.000943696      15.0657     -123.521 
-0.000542724      15.7096     -120.613 
-0.00200478      14.9959     -120.806 
-0.000532914      16.5463     -121.154 
-0.000528320      15.9569     -120.422 
-0.00102175      14.5556     -123.341 
-0.00247628      22.4874     -120.579 
-0.00102704      17.0627     -123.914 
-0.000521900      15.6426     -123.528 
-0.00148390      16.3533     -124.234 
-0.00132972      15.6408     -120.763 
-0.00149884      11.3738     -120.895 
-0.000976385      14.7773     -123.518 
-0.00147245      17.2596     -120.964 
-0.00283185      10.5987     -118.887 
-0.000499807      15.1325     -123.354 
-0.000499522      16.5050     -120.916 
-0.00144599      22.3778     -120.507 
-0.000491157      15.9166     -120.174 
-0.000489307      15.5095     -123.854 
-0.000482161      17.1075     -124.136 
-0.00176417      22.1994     -120.539 
-0.00177277      16.4645     -124.308 
-0.000475558      14.2234     -123.064 
-0.000474653      15.6690     -120.362 
-0.000925243      15.6205     -123.934 
-0.000469938      11.6350     -121.504 
-0.00263883      22.0899     -120.466 
-0.000913873      17.8249     -121.978 
-0.000900479      16.5329     -120.536 
-0.00132141      22.5970     -120.651 
-0.000908935      11.2641     -120.754 
-0.000460489      17.1737     -123.986 
-0.000457926      17.7827     -121.759 
-0.00132092      14.1127     -122.969 
-0.00210089      15.0240     -120.388 
-0.000898497      11.7872     -121.964 
-0.00175661      21.8025     -121.649 
-0.000452544      17.2186     -120.735 
-0.000450539      15.8765     -119.924 
-0.000443276      14.9549     -123.435 
-0.00135265      10.0335     -142.125 
-0.000645354      15.6000     -120.510 
-0.00153505      17.2186     -124.207 
-0.000434929      15.5542     -124.099 
-0.000434158      17.2874     -120.600 
-0.000853735      11.8974     -122.087 
-0.00121203      10.5287     -119.097 
-0.000852750      17.8508     -121.624 
-0.000844612      11.3052     -121.103 
-0.000427413      14.6225     -123.168 
-0.000426682      15.8072     -120.069 
-0.000422313      10.6376     -119.264 
-0.00159557      15.6653     -124.177 
-0.000799937      17.1525     -124.357 
-0.000826861      21.6506     -121.399 
-0.000822094      17.3970     -120.693 
-0.00369954      9.97052     -141.843 
-0.000413281      11.9090     -120.700 
-0.000765190      15.6979     -119.962 
-0.00118984      10.5679     -119.476 
-0.000411619      14.5789     -122.905 
-0.000409876      17.9189     -121.490 
-0.000795562      14.0021     -122.873 
-0.00405358      22.5563     -120.476 
-0.000406101      11.3468     -121.449 
-0.000777830      16.5756     -124.380 
-0.00182219      21.9126     -121.717 
-0.00337344      12.8302     -122.005 
-0.000790896      15.7673     -119.817 
-0.000401512      12.0506     -122.530 
-0.00213276      22.1305     -120.644 
-0.000771147      17.9293     -122.981 
-0.00188140      21.5824     -121.510 
-0.000396516      16.4924     -120.296 
-0.000395294      17.9872     -121.357 
-0.000394875      11.8727     -122.619 
-0.000394136      16.3984     -124.465 
-0.000392476      14.4683     -122.811 
-0.00263655      22.0617     -120.750 
-0.00110352      17.3563     -120.466 
-0.000389149      12.2285     -122.442 
-0.000825072      17.2418     -122.879 
-0.00422211      9.92129     -142.206 
-0.000762850      18.7577     -121.928 
-0.000384177      11.2786     -121.661 
-0.00882610      1.44222     -146.310 
-0.000742508      18.0972     -121.442 
-0.000397180      11.9160     -122.943 
-0.00382884      14.9551     -120.543 
-0.000378668      11.1737     -119.134 
-0.000744307      14.4251     -122.544 
-0.000732508      17.4659     -120.559 
-0.000724364      13.7136     -122.856 
-0.000373924      12.2044     -122.961 
-0.00139803      15.6287     -120.109 
-0.00105974      18.2072     -121.525 
-0.000369621      11.8489     -123.154 
-0.000368275      11.1350     -118.775 
-0.000728621      10.4983     -119.691 
-0.000366236      16.3325     -124.624 
-0.000721261      18.8002     -122.135 
-0.000701814      15.0217     -123.267 
-0.000382320      11.9597     -123.265 
 0.0104376     0.486621      9.46232 
-0.00104374      11.0264     -118.610 
-0.000706484      15.5992     -124.342 
-0.000359179      16.4817     -119.676 
-0.000695614      12.3151     -123.071 
-0.000355415      11.4064     -122.687 
-0.000354830      14.3822     -122.276 
-0.000352864      11.7883     -119.697 
-0.000687351      16.6210     -124.608 
-0.00138781      22.6659     -120.548 
-0.000350775      17.2401     -123.838 
-0.000747139      11.8929     -123.476 
-0.00108508      21.9388     -121.430 
-0.000687089      10.4589     -119.310 
-0.000684375      18.8680     -122.005 
-0.00101244      21.5142     -121.621 
-0.000344677      14.3146     -122.447 
-0.000672774      12.0037     -123.584 
-0.000343739      17.9730     -123.195 
-0.000342660      11.3391     -122.905 
-0.000341411      16.2668     -124.784 
-0.000340953      16.4423     -119.434 
-0.000755180      21.9656     -121.143 
-0.000335537      14.3397     -122.005 
-0.000986748      17.4253     -120.332 
-0.000335531      22.7754     -120.619 
-0.000965868      10.1272     -117.780 
-0.000331934      15.7104     -124.418 
-0.000331635      18.9782     -122.082 
-0.000649277      11.3828     -123.243 
-0.000638580      13.6704     -122.574 
-0.000609370      18.3854     -121.477 
-0.00117306      15.0530     -119.971 
-0.00127437      10.8968     -127.543 
-0.000937329      10.9883     -118.244 
-0.000326365      16.1554     -124.713 
-0.000325110      18.0169     -123.408 
-0.000636932      14.3655     -121.566 
-0.000937377      12.3589     -123.381 
-0.00153278      19.1140     -121.827 
-0.00124853      22.9260     -120.861 
-0.000630868      21.5563     -121.803 
-0.000320748      17.2848     -124.058 
-0.000320692      11.6792     -119.550 
-0.000635591      14.9272     -120.964 
-0.000926299      15.6444     -124.584 
-0.000319271      18.6899     -122.057 
-0.00170801      21.9806     -121.608 
-0.000913625      14.2974     -121.734 
-0.000317081      12.0482     -123.901 
-0.000317109      16.4031     -119.190 
-0.000316547      18.2235     -122.085 
-0.00189991      9.62829     -118.269 
-0.00537074      21.5307     -122.096 
-0.000905914      16.2011     -124.946 
-0.000311945      17.9061     -123.335 
-0.000311381      21.9930     -120.857 
-0.00119391      17.3851     -120.105 
-0.000310034      15.5887     -119.854 
-0.000308655      11.9372     -123.797 
-0.000307521      18.6649     -122.396 
-0.00117099      11.4268     -123.579 
-0.000306574      10.7012     -118.098 
-0.000306253      17.3066     -123.690 
-0.000304805      16.7779     -124.902 
-0.000576398      10.7878     -125.340 
-0.000304074      18.2491     -121.739 
-0.000593268      16.5120     -119.297 
-0.000883915      10.8826     -128.134 
-0.000592768      10.0902     -117.378 
-0.000589438      11.9819     -124.114 
-0.000298480      18.8617     -122.881 
-0.000854462      14.3238     -121.293 
-0.000296729      18.2177     -122.992 
-0.000295081      13.7379     -122.394 
-0.000819375      9.55791     -118.496 
-0.000294531      17.8393     -123.476 
-0.000564149      15.6581     -119.709 
-0.000292389      22.8850     -120.689 
-0.00160596      19.1820     -121.701 
-0.000573016      10.8074     -124.749 
-0.000432874      12.3822     -122.869 
-0.000288904      18.7511     -122.809 
-0.000288789      17.2891     -125.014 
-0.000288149      11.5311     -119.055 
-0.000838684      15.5787     -124.751 
0.00383004     0.644981     -97.1250 
-0.000566399      18.2849     -122.856 
-0.000378306      14.8587     -121.122 
-0.000285435      9.98238     -117.181 
-0.000284092      23.0357     -120.930 
-0.000283871      12.0930     -124.216 
-0.00107796      17.8835     -123.690 
-0.000282695      13.9588     -122.597 
-0.000282592      16.4730     -119.055 
-0.00272199      10.9322     -128.463 
-0.000281452      10.8800     -118.072 
-0.000279713      12.9405     -122.118 
-0.00285377      21.9547     -121.895 
-0.000781151      14.3922     -121.128 
-0.000277593      16.7996     -119.373 
-0.000277355      16.6009     -124.992 
-0.000277026      10.0829     -141.766 
-0.00106095      22.9947     -120.759 
-0.000276539      12.4031     -123.690 
-0.00128693      9.28138     -144.118 
-0.00138913      17.3451     -119.876 
-0.000274822      13.6275     -122.291 
-0.000529420      12.1381     -124.528 
-0.000532686      16.0897     -124.875 
-0.000794879      10.0536     -116.973 
-0.000525854      18.7946     -123.014 
-0.00549341      2.37453     -147.381 
-0.000273172      15.1335     -124.446 
-0.00199938      11.3603     -123.802 
-0.000905246      9.80906     -142.289 
-0.000532197      11.6399     -119.208 
-0.000270449      17.4176     -123.763 
-0.000784841      18.3955     -122.930 
-0.000268818      16.5818     -119.162 
-0.000781444      12.2041     -124.315 
-0.000266995      18.3437     -121.264 
-0.000266085      17.2236     -125.166 
-0.000519677      13.1871     -125.618 
-0.00119030      17.4543     -119.973 
-0.00161652      10.8343     -125.685 
-0.000984048      14.2824     -121.019 
-0.00101490      10.1326     -141.411 
-0.000264171      18.8383     -123.218 
-0.000264006      13.5849     -122.005 
-0.000515623      9.52000     -118.072 
-0.000263591      16.0384     -118.610 
-0.000263152      15.6900     -124.824 
-0.000629026      12.3814     -124.203 
-0.000509937      16.6907     -119.268 
-0.000259974      9.77605     -143.318 
-0.000971726      18.3722     -123.275 
-0.000260292      13.9835     -122.144 
-0.000257915      12.7880     -121.701 
-0.000256736      15.5130     -124.919 
-0.00143036      18.4391     -123.139 
-0.000254747      13.4326     -121.608 
0.000501377      2.00639      156.501 
-0.000496749      17.2698     -125.383 
-0.00249030      9.76033     -142.660 
-0.000491941      15.9298     -118.496 
-0.000250756      15.0223     -124.367 
-0.00214658      21.4630     -122.209 
-0.000484333      12.5263     -121.152 
-0.000248964      10.9507     -117.876 
-0.000687774      14.3510     -120.854 
-0.000248611      15.9784     -124.804 
-0.000480660      17.8170     -123.833 
-0.00104863      12.0269     -124.430 
-0.000247937      18.1926     -120.964 
-0.000247140      13.7630     -121.935 
-0.00200740      23.1044     -120.828 
-0.00160966      13.1692     -126.104 
-0.000246099      15.4016     -124.846 
-0.000933408      10.0176     -116.565 
-0.000698336      14.8862     -120.700 
-0.000365468      16.1086     -118.474 
0.00187339      1.93329      155.556 
-0.000242499      12.4579     -121.342 
-0.000241706      18.9052     -123.085 
-0.000476162      9.71201     -143.036 
-0.000240944      15.8014     -124.897 
-0.000240209      13.8733     -122.040 
-0.000239896      11.4880     -126.790 
-0.000471002      19.2242     -121.904 
-0.000462922      17.9280     -123.903 
-0.000238844      9.84033     -126.404 
-0.000237963      15.4475     -125.089 
-0.000772089      16.6517     -119.028 
-0.000236842      13.3909     -121.316 
-0.000660501      11.6011     -118.863 
-0.000235339      9.23887     -119.006 
-0.000685455      10.1827     -141.059 
-0.000683501      17.3163     -125.599 
-0.000687651      9.85787     -125.754 
-0.000233969      18.7419     -121.383 
-0.000233310      16.0242     -125.039 
-0.000674997      9.23472     -144.520 
-0.000384116      12.3153     -124.413 
-0.000452266      15.2471     -118.179 
-0.000231203      13.9411     -121.866 
-0.000858378      11.5211     -127.666 
-0.000230307      15.3360     -125.017 
-0.000451091      18.8822     -123.421 
-0.00111727      16.0002     -118.359 
-0.000448002      13.3495     -121.023 
-0.000449093      9.20035     -118.571 
-0.000227189      12.5679     -121.464 
-0.000428732      14.8175     -120.858 
-0.000433981      16.7584     -125.283 
-0.000224702      10.8426     -117.699 
-0.000224802      15.9128     -124.968 
-0.000653774      19.2921     -121.779 
-0.000839244      12.4997     -121.656 
-0.000987493      14.2413     -120.743 
-0.000221653      9.36034     -142.640 
-0.000221577      15.2246     -124.943 
-0.000221430      18.0419     -120.659 
-0.00201271      21.9293     -122.183 
-0.000622265      11.4050     -124.136 
-0.00179139      9.90483     -126.129 
-0.000792289      18.4829     -123.346 
-0.000886248      14.1726     -120.908 
-0.00156993      16.7605     -119.134 
-0.000217771      17.8617     -124.046 
-0.000628650      15.9587     -125.204 
-0.000802967      11.9157     -124.330 
-0.000216431      9.67603     -122.508 
-0.000606842      11.4724     -127.349 
-0.000214954      13.8991     -121.586 
-0.000424727      9.16236     -118.131 
-0.000214875      15.4936     -125.331 
-0.00103562      10.2450     -141.340 
-0.000214062      18.8518     -121.464 
-0.000214067      14.4608     -120.964 
-0.000408317      17.6396     -123.906 
-0.000213256      9.94609     -116.771 
-0.000212832      15.5723     -118.540 
-0.000923528      10.9199     -129.053 
-0.000382488      12.5419     -121.967 
-0.000461678      17.2513     -125.754 
-0.000210935      10.7346     -117.520 
-0.000923128      22.6253     -120.373 
-0.00115818      18.9931     -123.489 
-0.000210213      9.29688     -142.341 
-0.000209295      15.0676     -124.618 
-0.00275067      18.4162     -123.483 
-0.000410773      13.3084     -120.727 
-0.00215763      23.2141     -120.896 
-0.000208252      17.7823     -120.256 
-0.000207958      13.2000     -126.870 
-0.00395365      9.18851     -144.926 
-0.00178647      15.2095     -117.913 
-0.000896583      10.8994     -125.440 
-0.00640944      1.37637     -144.462 
-0.00118194      16.8694     -119.239 
-0.000206423      9.16899     -119.249 
-0.000422113      13.9673     -121.414 
-0.000271599      21.3708     -122.619 
-0.000595477      17.9728     -124.114 
-0.000205015      19.3344     -121.980 
-0.00119924      2.35287     -144.689 
-0.000581726      12.4477     -123.996 
-0.000203877      9.91032     -116.358 
-0.000394831      15.3821     -125.261 
-0.000627862      17.3054     -119.646 
-0.000203185      9.40910     -142.253 
-0.000202604      13.1522     -126.591 
-0.000391892      9.71926     -122.905 
-0.000384843      17.3629     -125.814 
0.00214029      2.40533      176.186 
-0.00132421      9.13017     -118.811 
-0.000354490      17.5237     -119.842 
-0.000199993      11.3842     -124.695 
-0.000199736      12.6098     -121.774 
-0.000199133      9.66147     -117.626 
-0.000603988      13.8573     -121.304 
-0.00176948      15.2802     -117.773 
-0.000197943      13.1845     -127.357 
-0.00119354      19.4023     -121.855 
-0.000197498      15.1132     -124.868 
-0.000196787      10.8056     -117.324 
-0.000196610      16.6932     -125.442 
-0.000196270      18.0012     -120.440 
-0.000521137      12.5169     -122.471 
-0.00172581      16.0706     -118.223 
-0.000205292      13.2397     -120.904 
-0.000736454      9.34597     -141.953 
-0.000194425      16.0702     -125.272 
-0.000780618      21.2362     -122.852 
-0.000470791      14.7489     -121.017 
-0.000381889      13.2165     -126.384 
-0.00178937      9.98206     -116.154 
-0.000191885      10.8697     -128.726 
-0.000705725      22.3090     -120.611 
-0.00119542      10.2331     -140.711 
-0.000190335      18.8102     -121.256 
-0.000306830      17.1963     -119.547 
-0.000374069      13.3367     -120.256 
-0.00237883      14.7220     -121.444 
-0.000360391      17.6329     -119.938 
-0.000256166      15.8283     -125.538 
-0.000666602      10.6979     -117.140 
-0.000185807      10.9822     -128.790 
-0.000359644      21.9244     -120.964 
-0.000185417      15.2706     -125.189 
-0.00100493      11.8045     -124.229 
-0.000359672      17.6843     -124.121 
-0.00122105      13.1699     -127.844 
-0.000184325      16.1166     -125.505 
-0.000680107      22.7348     -120.445 
-0.000183795      11.3185     -124.926 
-0.000183238      12.4851     -120.838 
-0.000521925      17.7422     -120.033 
-0.000565161      16.1790     -118.339 
-0.000181700      11.3459     -125.819 
-0.000345156      9.62464     -117.204 
-0.00133276      13.9257     -121.133 
-0.000793738      19.5125     -121.931 
-0.000180675      18.0839     -124.182 
-0.000180649      12.3548     -119.055 
-0.000180260      16.4514     -125.700 
-0.000353752      15.9399     -125.605 
-0.000407160      17.2359     -119.778 
-0.000347707      13.2274     -120.132 
-0.000177710      12.3361     -127.093 
-0.000506244      21.9971     -122.072 
-0.000177711      15.0019     -124.792 
-0.000176687      16.9164     -125.569 
-0.000372027      13.3283     -126.457 
-0.00107847      9.28310     -141.649 
-0.000175737      11.5072     -128.224 
-0.000175624      11.5627     -118.516 
-0.000502884      9.69618     -123.559 
-0.000661554      14.0629     -120.796 
-0.000174625      10.8074     -128.991 
-0.000174233      9.09189     -118.369 
-0.000439242      17.4099     -126.027 
-0.000173926      13.2677     -120.431 
-0.000173047      19.1039     -123.557 
-0.000172714      19.6227     -122.005 
-0.000341593      9.95221     -126.501 
-0.000171750      15.4284     -125.503 
-0.000252464      11.2342     -125.727 
-0.000721235      13.8159     -121.021 
-0.000333146      9.09927     -119.495 
-0.000170341      10.7453     -129.259 
-0.000323532      19.9963     -122.418 
-0.000335022      18.1290     -124.391 
-0.000504431      11.4713     -123.912 
-0.000169416      16.0515     -125.670 
-0.000169043      18.3709     -120.921 
-0.000472484      11.1877     -125.395 
-0.000167988      16.8048     -125.506 
-0.000167762      9.13893     -119.932 
-0.000622639      21.1690     -122.969 
-0.000637944      12.3161     -118.729 
-0.000464991      17.4145     -119.745 
-0.00111775      21.9521     -120.677 
-0.000166827      17.4746     -125.873 
-0.000324963      19.0373     -123.690 
-0.000473678      15.1591     -125.116 
-0.000335040      11.2576     -129.232 
-0.000633197      20.1068     -122.489 
-0.000165238      9.08801     -117.242 
-0.000484088      10.6328     -129.198 
-0.000907698      13.2966     -119.959 
-0.000792829      12.3366     -123.896 
-0.00145724      4.08705     -139.764 
-0.000163544      16.7397     -125.665 
-0.000839785      11.5823     -124.019 
0.00206726     0.659697     -104.036 
-0.000909559      13.1068     -128.059 
-0.000467185      17.5864     -125.932 
-0.000320686      13.2568     -119.659 
-0.000931073      2.30755     -146.310 
-0.000618800      15.8749     -125.773 
-0.000469184      18.0630     -124.535 
0.00215924      1.36235      40.2364 
-0.000917495      10.2225     -140.080 
-0.000467964      13.3760     -126.733 
-0.000756114      21.8833     -120.784 
-0.000160561      18.7003     -121.174 
-0.000617007      9.82405     -142.943 
-0.00179785      8.37673     -118.523 
-0.00203486      15.1722     -117.646 
-0.000457034      9.39310     -125.991 
-0.000212941      16.2748     -125.800 
-0.000159447      11.3701     -129.289 
-0.000158893      11.6934     -124.125 
-0.000588248      22.2683     -120.434 
-0.000157426      11.2530     -125.159 
-0.000181735      9.05415     -117.924 
-0.000767476      9.74064     -123.951 
-0.00111065      17.5216     -126.085 
-0.000155141      18.4807     -121.006 
-0.000154938      12.3845     -127.388 
-0.000296233      9.69585     -116.988 
-0.000918460      18.3495     -123.621 
-0.000152541      19.2815     -123.492 
-0.000152093      16.8514     -125.727 
-0.000300347      9.05167     -116.792 
-0.00109287      23.2827     -120.795 
-0.000705731      10.5202     -129.136 
-0.000438573      18.6590     -120.964 
-0.00187875      3.34951     -139.844 
-0.000150587      10.0482     -127.235 
-0.000493170      8.38475     -119.745 
-0.000250582      13.8846     -120.851 
-0.000397438      11.5247     -118.166 
-0.000290094      17.7022     -119.809 
-0.000210225      13.4880     -126.802 
-0.000700144      22.6944     -120.271 
-0.000280871      11.0301     -124.958 
-0.000292973      23.1731     -120.726 
-0.000702490      17.0747     -125.850 
-0.000147158      18.9264     -123.623 
-0.000146912      14.6538     -121.608 
-0.000415219      17.8115     -119.904 
-0.000638269      12.2703     -124.104 
-0.000917303      13.9943     -120.964 
-0.000675857      11.3083     -129.546 
-0.000145653      17.9518     -124.469 
-0.00189989      10.1524     -139.154 
-0.000145537      15.9866     -125.838 
0.00189970      31.4468     -130.253 
-0.000546194      12.2778     -118.402 
-0.000541107      9.06969     -120.184 
-0.00302616      4.03584     -140.631 
-0.000286042      13.6000     -126.870 
-0.000530448      15.6818     -121.014 
-0.000144448      9.84033     -143.596 
-0.000674653      20.0393     -122.612 
-0.000236343      11.1450     -129.174 
-0.000280867      19.3258     -123.690 
-0.000142820      15.5867     -125.811 
-0.00319456      13.2191     -128.118 
-0.000977233      8.36985     -121.715 
-0.000141651      17.9972     -124.679 
-0.000140961      10.0968     -127.596 
-0.000836698      16.9630     -125.789 
-0.000190988      8.98033     -117.022 
0.000139972      1.35764      45.0000 
-0.000736494      9.87247     -142.573 
-0.00106819      21.5057     -122.389 
-0.000259397      15.2053     -125.362 
-0.000138619      13.4059     -120.084 
-0.000929685      11.5161     -124.242 
-0.000138510      16.4335     -126.089 
-0.000137906      18.5493     -120.879 
-0.000137687      17.9863     -125.952 
-0.000471176      10.5709     -129.472 
-0.00119024      13.7120     -126.937 
-0.000137213      12.4566     -118.376 
-0.000935496      9.85787     -144.246 
-0.000993422      2.28806     -143.531 
-0.000224958      15.8101     -125.942 
-0.000135334      12.9516     -120.842 
-0.000631914      18.0980     -126.009 
-0.000386589      9.01590     -116.338 
-0.000386309      10.1458     -127.954 
-0.000134679      18.4396     -120.793 
-0.00112089      15.2431     -117.506 
-0.000613892      13.3264     -119.489 
-0.000134177      10.7694     -125.933 
-0.00178416      10.0921     -138.857 
-0.00113520      9.65981     -116.565 
-0.000256108      19.1483     -123.756 
-0.000561422      20.9478     -122.840 
-0.000258308      17.5931     -119.713 
-0.000945771      9.22050     -141.340 
-0.000641746      10.6835     -129.531 
-0.000386652      22.3373     -120.330 
-0.000258485      15.4750     -125.744 
-0.000260411      13.3660     -119.787 
-0.000254919      16.0336     -126.069 
-0.000130380      19.5033     -123.625 
-0.00123900      12.2256     -123.794 
-0.000226073      14.7903     -121.283 
-0.000596430      18.3988     -120.579 
-0.000479632      21.9721     -122.359 
-0.000429670      11.7385     -124.448 
-0.000248915      17.6334     -126.142 
0.000370003      1.31210      52.4314 
-0.000129124      19.0818     -123.890 
-0.000357113      17.7717     -119.681 
-0.000252114      18.0334     -126.158 
-0.000127869      17.1267     -119.678 
-0.000243365      18.5084     -120.666 
-0.000152911      12.8601     -119.435 
-0.000127063      19.9720     -122.735 
-0.00132790      22.6541     -120.096 
-0.000353725      21.3468     -122.916 
-0.000475615      19.6587     -123.884 
-0.00149943      21.9114     -120.497 
-0.000364055      12.2922     -123.587 
-0.000125279      18.8786     -121.130 
-0.000235726      12.6736     -118.668 
-0.000353466      10.9845     -124.616 
-0.000356811      8.33882     -118.040 
-0.000556033      20.8806     -122.959 
-0.000242807      8.41218     -122.179 
-0.000744169      11.3594     -129.857 
-0.000455062      9.00062     -120.440 
-0.000218151      12.2400     -118.072 
-0.000122810      16.5453     -126.150 
-0.000868183      23.2419     -120.626 
-0.000801387      11.6273     -124.346 
-0.000240580      17.6626     -119.584 
-0.000121156      15.8572     -126.176 
-0.000221282      10.7227     -125.587 
-0.000235800      18.9885     -121.212 
-0.000120479      10.1952     -128.309 
-0.000350750      22.2279     -120.256 
-0.000869978      10.0851     -138.215 
-0.000236310      12.3483     -118.225 
0.000119426      1.75454      155.772 
-0.000462931      20.0154     -122.928 
-0.000189330      13.7760     -126.737 
-0.000142126      12.8996     -119.745 
-0.000118257      8.98069     -115.880 
-0.000343842      21.3242     -119.932 
-0.00104669      8.34458     -122.471 
-0.000481844      10.2450     -128.660 
-0.000337696      8.33614     -116.811 
-0.000116946      15.0683     -118.198 
0.000543700      1.28996      60.2551 
-0.000641758      15.3510     -117.633 
-0.000590886      12.1592     -124.004 
-0.00114231      18.1452     -126.213 
-0.00163653      13.8240     -127.003 
-0.000114737      9.04142     -120.877 
-0.000114644      16.4808     -126.314 
-0.000114643      19.7697     -123.947 
-0.000114590      12.8210     -119.124 
-0.000506311      10.1326     -128.589 
-0.00110390      15.7454     -126.113 
-0.000113672      11.0504     -124.380 
-0.000113688      18.1743     -124.599 
-0.000113188      12.3389     -122.557 
-0.000113147      15.0360     -118.610 
-0.000563917      10.9705     -129.378 
-0.000112972      17.4840     -119.615 
0.000112817      31.0905     -130.617 
-0.000380853      17.9689     -126.309 
-0.000112352      9.47249     -127.451 
-0.000778215      8.90878     -116.105 
-0.000217900      16.4164     -126.479 
-0.000501929      19.0984     -121.293 
-0.000314892      13.2872     -119.189 
-0.000111034      16.8982     -125.948 
-0.00258803      6.83567     -124.992 
-0.000859954      12.5455     -127.747 
-0.000523168      22.2970     -120.153 
-0.000110699      15.1388     -118.055 
-0.000216660      10.7346     -129.860 
-0.000287214      16.9783     -119.343 
-0.000650677      25.1159     -129.572 
-0.000703772      12.1695     -118.250 
-0.000109870      17.4571     -126.240 
-0.000598846      8.26946     -114.582 
-0.000612693      2.21269     -139.399 
-0.000607870      10.1827     -128.941 
-0.000814557      13.2822     -127.905 
-0.000109427      15.7232     -121.264 
-0.000515329      20.0590     -123.120 
0.000215823      30.0145     -130.568 
-0.000213105      18.3939     -123.828 
-0.000109023      12.9797     -120.358 
-0.000108374      18.8374     -120.922 
-0.00212818      23.6720     -130.202 
-0.000731413      17.6233     -119.358 
-0.000198854      2.22423     -142.306 
-0.000390403      19.7034     -124.077 
-0.000171315      12.5271     -118.202 
-0.00194903      10.2331     -129.289 
-0.000107320      17.2335     -126.125 
-0.00183934      6.42246     -129.440 
-0.000582520      18.3582     -120.364 
-0.000107156      22.7635     -120.169 
-0.000307978      17.5068     -123.254 
-0.000208252      19.3039     -124.019 
-0.000208818      15.6379     -117.745 
-0.000963454      9.54652     -129.560 
-0.000209253      10.9393     -124.271 
-0.000494101      25.2796     -129.736 
-0.000460771      18.2488     -120.275 
0.000105290      31.0385     -130.505 
-0.000208018      12.6354     -118.350 
-0.000301357      17.7322     -119.456 
-0.00101224      23.0057     -129.780 
-0.000554823      12.9298     -119.261 
-0.000203977      21.2844     -119.745 
-0.000103686      19.8808     -124.010 
-0.000577106      16.5283     -126.537 
-0.000399753      9.90483     -143.871 
-0.000103385      17.5536     -119.486 
0.000395899      29.9625     -130.452 
-0.000494886      13.8880     -126.804 
-0.000101470      13.3571     -119.021 
-0.000196176      16.3257     -118.700 
-0.00114810      7.88923     -120.466 
-0.000100633      14.6804     -121.178 
-0.000408647      11.1165     -124.148 
-0.000100529      19.8145     -124.139 
-0.000231754      12.7822     -118.811 
-9.96239e-05      17.3452     -126.183 
9.91817e-05      1.32424      64.9831 
-0.000210993      21.4382     -122.504 
-9.88190e-05      15.5299     -117.621 
-0.000354431      18.6868     -120.627 
0.00183995      4.07372     -160.498 
-0.000803234      9.25410     -145.211 
9.80322e-05      1.31210      37.5686 
0.00203224     0.644981     -119.745 
0.000948542      31.5079     -130.159 
-0.000458597      3.23679     -140.013 
-0.000272048      10.9088     -129.644 
-0.000543542      21.2149     -119.852 
-0.000903216      25.2286     -129.596 
-0.000978448      12.5977     -118.030 
-0.000108418      18.2098     -126.064 
0.00101022      1.34104      72.6460 
-9.63371e-05      19.4150     -124.083 
-9.63148e-05      20.8372     -122.775 
-0.000340763      16.6402     -126.594 
-0.000675058      18.0807     -126.363 
-9.58117e-05      10.7961     -129.588 
0.000356585      1.43108      26.5651 
9.56189e-05      30.9777     -130.601 
-0.000278880      11.0055     -124.037 
-0.000860144      20.0360     -123.436 
-0.000166742      13.3315     -128.177 
-0.000274349      22.1877     -120.078 
0.000932511      32.2758     -127.750 
-0.000274285      17.3961     -123.179 
-9.46568e-05      15.6336     -126.049 
-0.000345244      12.7439     -118.496 
-0.000526480      9.92290     -144.516 
0.00128785      1.36704      69.4440 
0.000854564      30.6083     -127.139 
-0.000900965      14.4568     -117.699 
-0.000181939      11.2468     -129.806 
-0.000768072      22.6141     -119.921 
-0.000653051      8.41522     -119.002 
-0.000179908      9.15817     -141.028 
-0.000547288      13.0088     -119.876 
-0.000944115      11.2939     -124.028 
-0.000180496      2.15258     -138.013 
-0.000179968      11.4872     -117.814 
0.000348084      29.0698     -130.088 
-0.000329644      9.96955     -144.142 
-0.000472390      10.8473     -129.914 
-9.24172e-05      17.9900     -119.871 
-0.000176366      19.2376     -124.153 
-0.000160954      17.4446     -119.386 
-0.000408573      8.23650     -114.075 
-0.000176086      20.7700     -122.894 
-0.000423752      13.0782     -119.701 
-0.00182113      1.24964     -129.806 
-0.000176424      9.87506     -115.942 
-9.11930e-05      18.2745     -125.917 
0.000180638      29.9107     -130.335 
-0.000316764      16.2874     -118.453 
9.05200e-05      30.5497     -127.980 
-0.000885730      8.87387     -115.641 
-9.03466e-05      9.93612     -142.853 
-0.000522659      23.3108     -120.525 
-0.000240438      17.0099     -126.008 
-8.96814e-05      9.27068     -140.954 
-8.95326e-05      13.3185     -118.720 
-0.00107592      14.9002     -121.386 
-0.00150810      13.9361     -127.067 
-0.000253724      9.62430     -116.139 
-0.000502776      12.9691     -119.570 
-8.92438e-05      18.3394     -125.770 
-0.000320286      18.0993     -119.965 
8.84847e-05      29.6963     -127.117 
-0.000317391      19.6372     -124.208 
-0.000318920      18.5772     -120.541 
-8.82016e-05      15.7813     -122.159 
-8.80620e-05      3.29848     -140.906 
0.000465410      31.4416     -127.453 
-0.000165635      20.1028     -123.311 
-0.000172132      9.95221     -143.499 
-8.76377e-05      21.8425     -120.604 
-0.000327865      10.3076     -141.618 
-8.71002e-05      18.4386     -124.035 
-0.000312518      16.8304     -119.002 
0.000570013      30.9257     -130.489 
-8.65728e-05      11.0718     -123.805 
-0.000761509      21.6837     -122.341 
-0.000159889      17.1217     -126.067 
0.00106327      29.6481     -126.994 
-8.57379e-05      19.5261     -124.146 
0.000169116      29.8686     -130.002 
-0.000420945      12.1318     -117.917 
-0.000239283      18.3216     -126.119 
-0.000568763      9.58833     -130.601 
-8.53177e-05      17.8413     -119.554 
-0.000487898      25.3923     -129.759 
-0.000233591      16.5760     -126.759 
-0.000247402      10.9609     -123.690 
-0.000310553      7.83551     -122.067 
-0.000164913      13.2802     -118.418 
-8.47631e-05      17.2981     -125.969 
-0.00273270     0.288444     -146.310 
-8.45617e-05      13.5209     -127.548 
-0.00160569      22.1477     -119.899 
-0.000846310      9.59767     -129.928 
-0.000842563      4.09800     -141.340 
-8.38017e-05      15.8491     -122.005 
-0.000154559      19.3183     -121.452 
-0.000295832      18.4835     -124.240 
-0.000398804      21.1456     -119.960 
-0.000320786      3.18597     -141.116 
-8.24077e-05      19.7483     -124.269 
-0.000368689      9.20869     -140.641 
-0.00175249      22.9442     -129.908 
-0.000631177      15.6808     -126.285 
-0.000643673      17.2854     -123.102 
-0.000158034      11.4501     -117.460 
-0.000307783      23.3515     -120.694 
-0.000387757      10.2840     -129.634 
0.000519558      27.8718     -130.227 
-0.00222678      11.1828     -123.917 
-0.000213620      12.4895     -117.878 
-8.08963e-05      19.2083     -121.373 
-0.000227007      17.6930     -119.231 
-0.000218005      13.4576     -127.755 
0.000156617      29.8276     -129.668 
-0.000157956      8.30190     -122.005 
-8.02221e-05      19.1715     -124.287 
-0.000154554      18.4677     -120.453 
-0.00141337      24.9524     -129.406 
-0.000153256      17.9503     -119.650 
0.000595298      1.36000      28.0725 
-7.94264e-05      10.9480     -116.940 
-0.000154103      15.8240     -122.405 
-0.00201433      8.57345     -130.079 
-7.89624e-05      9.36547     -145.088 
-0.000299624      17.5842     -119.131 
-0.000613995      13.6331     -127.610 
-0.000152992      20.6594     -122.829 
-7.85016e-05      18.4604     -123.690 
-0.000486289      10.8500     -123.573 
-0.000271300      15.4591     -117.759 
0.000225421      29.1311     -129.987 
-7.79138e-05      9.94706     -115.741 
-7.76865e-05      23.0569     -129.933 
-0.000422647      16.6880     -126.815 
-0.000629403      3.13637     -142.253 
-0.000226623      9.20869     -145.620 
-0.000293584      15.7927     -126.347 
-0.000152439      18.3863     -125.972 
-0.000779256      25.4538     -129.644 
-0.000116897      13.8723     -127.266 
-0.000150720      9.51731     -115.919 
-0.000902929      20.0802     -123.627 
-0.000429778      10.0166     -143.771 
-7.63371e-05      17.5143     -119.258 
-0.000266356      11.4109     -130.166 
-7.56971e-05      19.2827     -124.349 
-7.56971e-05      22.7234     -119.995 
7.57619e-05      32.3249     -127.863 
0.000219478     0.329848      104.036 
-0.000145544      19.5804     -121.807 
-7.55223e-05      13.2424     -118.113 
-7.55271e-05      21.8868     -122.005 
-0.000428035      21.1058     -119.772 
-0.000142489      12.7059     -118.179 
-7.51739e-05      18.5740     -124.648 
-0.000147001      9.84033     -115.523 
-0.000386969      8.32807     -121.247 
0.000210852      32.3880     -127.776 
-0.000146226      14.1317     -120.630 
-7.42274e-05      9.47688     -144.968 
0.00270978      33.0268     -127.619 
-0.000214200      18.9345     -125.369 
-0.000606413      22.5743     -119.745 
-0.000427238      8.96036     -119.999 
0.000288433      29.8173     -129.884 
-0.000179166      10.7861     -130.186 
-0.000140443      19.4283     -121.530 
-0.00156773      7.82693     -130.855 
-0.000340019      9.98815     -144.782 
-7.29512e-05      19.2167     -124.484 
-0.000663553      7.84897     -119.962 
-0.000458779      11.3422     -117.288 
-7.26568e-05      24.0714     -130.147 
-0.000203271      15.0102     -121.487 
-0.00104476      2.26416     -147.995 
-7.23640e-05      22.6835     -119.820 
-7.24012e-05      13.1180     -120.005 
-7.23214e-05      18.5540     -124.992 
-0.000247494      10.3212     -142.242 
-7.22338e-05      13.3944     -127.965 
-0.000142917      20.8910     -132.672 
-7.16966e-05      9.65385     -145.125 
-0.000334763      23.9306     -121.884 
-0.000497262      13.5698     -127.816 
-0.00105905      9.34221     -114.809 
-0.000208795      24.1841     -130.170 
-0.000278026      12.3106     -117.897 
-0.00108571      15.8670     -122.648 
0.000376571      30.6567     -127.259 
-0.000266643      9.54249     -145.244 
-0.00170209      3.98557     -141.520 
-0.000120944      18.0595     -119.745 
-0.000186760      21.8709     -120.317 
-0.00105183      14.5277     -117.553 
-0.000323598      8.45430     -119.476 
-0.000665332      20.8323     -132.821 
-0.000543304      9.16375     -146.032 
-0.000137320      11.8497     -124.548 
-0.00172492      6.25843     -122.471 
-6.97122e-05      18.9998     -125.229 
6.97699e-05      29.1826     -130.107 
-0.000332133      17.6541     -119.004 
-0.000202159      9.91258     -115.324 
-0.000492218      13.2757     -117.646 
-0.000267926      22.1080     -119.719 
-0.000932876      10.8379     -130.510 
-0.000194027      18.3521     -122.720 
-6.87098e-05      9.48262     -115.484 
-0.00186868      25.5155     -129.530 
-0.000262507      20.7028     -123.015 
-0.000313705      19.1668     -121.169 
-0.00216506      14.0000     -126.870 
-6.83409e-05      18.9809     -125.566 
-0.000133856      17.9109     -119.427 
0.000483317      32.4371     -127.887 
-0.000120533      12.2026     -117.741 
-0.000259958      17.3749     -119.516 
-0.00186747      1.20000     -126.870 
-0.00183632      20.1246     -123.816 
-0.000193845      18.4334     -126.174 
-0.000294829      16.3521     -126.646 
-0.000189979      24.2358     -130.314 
-0.000387273      19.0460     -125.426 
-9.93779e-05      9.23610     -114.567 
-6.68645e-05      24.7781     -129.498 
0.000130822      29.1731     -130.329 
-0.000114220      10.3846     -142.512 
-6.68271e-05      2.26557     -132.138 
-0.000127403      14.0911     -120.350 
-6.65476e-05      18.6462     -120.416 
-0.000685920      11.1269     -116.934 
0.000549862     0.252982      71.5651 
-0.00225643      6.79011     -124.439 
-6.62932e-05      20.1468     -123.501 
6.62989e-05      31.6917     -129.880 
-0.000434879      22.6021     -131.987 
-6.59484e-05      12.6577     -127.811 
-0.000129689      20.9453     -132.833 
-6.58762e-05      11.5211     -117.277 
-0.00115481      1.22115     -121.608 
-0.000602060      21.0661     -119.583 
-0.000521134      17.4754     -119.029 
-0.00190431      24.6261     -132.762 
-6.54407e-05      23.5593     -130.179 
6.53202e-05      29.1122     -130.431 
-0.000516866      24.2968     -130.192 
-0.000159617      18.2086     -120.057 
0.000118291      29.7660     -129.766 
0.00100857     0.688186     -125.538 
-0.000544022      16.7361     -127.034 
-0.000125254      19.5384     -121.608 
-0.000123807      24.6037     -129.591 
-0.000236973      14.0222     -120.515 
0.000839282      3.18798     -107.526 
-0.000172525      8.92063     -119.554 
-0.000898093      6.25946     -128.774 
-0.000244675      10.0345     -144.409 
0.000179106      27.8108     -130.333 
-9.66573e-05      18.3688     -126.321 
-0.000664232      23.6205     -130.054 
-0.000124138      9.80612     -115.102 
0.000232837      31.4903     -127.569 
-0.000292671      12.4188     -118.051 
-0.000167388      17.1864     -125.910 
-0.00109745      17.4055     -119.157 
-0.000831164      15.6164     -126.459 
-0.000243835      6.96735     -145.763 
-0.000566274      11.2345     -117.112 
-0.000343134      20.1911     -123.690 
-0.000180603      2.32551     -130.815 
-0.000425097      17.7629     -119.105 
-0.000226633      24.5421     -129.710 
-0.000849265      3.02417     -142.524 
-0.000706186      20.8867     -132.982 
-0.000117042      19.4965     -121.407 
-0.000230435      18.4627     -124.585 
0.000180471      29.1641     -130.550 
-0.000278946      18.5367     -120.328 
-0.000555107      17.8717     -119.204 
-0.000176204      20.7720     -120.812 
-0.000407724      22.5347     -119.568 
-6.14318e-05      17.1747     -123.024 
-0.000554485      23.9729     -122.046 
-0.000221455      10.2581     -141.968 
-6.10443e-05      12.9945     -127.999 
-0.000573406      16.7217     -118.895 
-0.000107898      11.4134     -117.104 
-0.000234651      19.0925     -125.621 
-6.06245e-05      21.5733     -122.276 
-6.05288e-05      12.5317     -128.260 
-0.000801348      10.1613     -139.790 
-0.000222109      8.35569     -120.493 
-6.03296e-05      3.08804     -143.427 
-0.000499102      7.80933     -119.454 
-5.97745e-05      9.89675     -145.539 
-0.000262697      18.5082     -124.789 
-0.000281893      20.7311     -120.622 
-0.000115698      9.77245     -114.677 
-0.000116416      10.7391     -123.453 
-0.000116589      20.6358     -123.136 
-0.000153360      10.0482     -142.765 
-5.89421e-05      19.0158     -120.881 
-0.000253009      9.14698     -140.323 
-0.000370492      6.25843     -147.529 
-0.000113399      3.28877     -138.945 
0.000287595      28.7130     -130.480 
-0.000216986      18.4273     -120.239 
-0.00154109      7.76660     -131.241 
-0.000115399      6.90136     -145.389 
-5.78519e-05      9.87862     -114.905 
-5.75107e-05      19.2767     -121.249 
-0.000113859      19.1576     -125.482 
-0.000222539      10.0080     -145.421 
5.71933e-05      29.2250     -130.448 
-0.000271184      22.6616     -131.852 
-0.000694505      20.2356     -123.879 
-0.000185290      18.4807     -126.374 
-0.00189303     0.226274     -135.000 
-0.000162443      13.0388     -119.396 
-0.000869919      11.4210     -129.600 
-0.000463723      9.30892     -114.362 
-0.000239529      25.0650     -129.431 
-0.000213790      20.5689     -123.257 
-0.000212536      8.89116     -120.256 
-5.57800e-05      16.5360     -122.152 
-0.000770562      6.88186     -144.462 
-0.000208096      2.27403     -129.289 
-0.000492416      10.6952     -123.096 
-0.000688922      21.1715     -132.856 
-0.000107744      10.0536     -145.045 
-0.000420093      16.7844     -127.252 
-0.000211168      22.6557     -132.138 
5.50986e-05      29.2342     -130.227 
-0.000159909      21.0965     -119.287 
-5.50357e-05      12.4690     -128.488 
5.49213e-05      2.32551      176.055 
-5.48485e-05      20.8283     -133.132 
-5.47001e-05      10.1458     -142.046 
-0.00103258      25.0033     -129.547 
-0.000391113      17.1312     -122.800 
-0.000160719      20.8800     -133.603 
-0.000104471      9.84520     -114.482 
-5.43604e-05      19.1255     -120.964 
0.00224215     0.737564     -139.399 
-0.000107399      22.4257     -119.491 
-0.000407182      19.2042     -125.676 
-0.000107180      13.9533     -120.682 
-0.00109739      6.23487     -146.514 
-0.000106011      20.8831     -133.293 
-7.88572e-05      11.5923     -117.096 
-5.33700e-05      19.6065     -121.485 
-0.000100785      15.3883     -117.897 
-5.32730e-05      24.6548     -129.734 
-0.000320054      16.6038     -122.005 
-0.000151318      13.2387     -117.339 
0.000579042      29.2079     -130.891 
-0.000104502      16.2880     -126.814 
-0.000155947      9.73932     -114.249 
-0.000151643      9.96281     -145.800 
-5.29135e-05      8.28686     -120.774 
-0.00152967      23.7332     -130.078 
-9.65616e-05      20.3020     -123.753 
-0.000151921      12.7732     -117.207 
-0.000613344      22.4954     -119.391 
-0.000249613      10.5857     -137.144 
0.000200177      32.4863     -127.999 
-5.24312e-05      19.2353     -121.045 
-0.00371585      20.8221     -133.755 
0.000215777      28.6522     -130.584 
-0.000102470      20.6905     -120.432 
-0.000197087      12.4566     -129.005 
-0.000101215      3.40165     -138.814 
-0.000101804      19.5649     -121.285 
-0.000609501      13.9817     -120.233 
0.000149020      29.2162     -130.669 
-5.15656e-05      13.3466     -117.487 
-0.000102583      20.8000     -120.510 
-0.000100973      20.5020     -123.380 
-0.000380022      10.0740     -145.679 
0.000143848      31.3782     -127.542 
-5.10312e-05      19.2692     -125.538 
-0.00110363      25.0946     -123.690 
-5.08811e-05      21.0268     -119.393 
-0.000487443      24.5933     -129.853 
-5.08598e-05      8.99031     -119.302 
-0.000856532      2.19672     -146.889 
-0.000309724      24.4096     -130.214 
-0.000146724      22.6998     -132.858 
-0.000100294      10.8900     -130.830 
-9.98035e-05      19.0845     -120.758 
-0.000291258      7.77030     -118.940 
-0.000204278      13.6966     -127.405 
-0.000333920      21.0575     -119.097 
-0.000180716      18.3179     -120.148 
-0.000431348      8.31538     -120.018 
-0.000233394      16.4000     -126.870 
-0.000363715      24.5674     -132.889 
-0.000277793      18.5346     -125.336 
-0.000915644      21.1129     -133.004 
-0.000279214      9.70674     -113.819 
4.90115e-05      30.5446     -127.230 
-0.000180897      2.22279     -149.744 
-0.000109045      20.4795     -123.690 
-9.66217e-05      20.7595     -120.320 
-0.000141597      9.23021     -146.310 
-4.86494e-05      10.1638     -115.153 
-4.86838e-05      23.3238     -120.964 
-0.000143344      19.5234     -121.085 
-9.66454e-05      22.7151     -132.002 
-0.000227885      13.9126     -120.399 
-0.000195596      11.8240     -134.178 
0.000175684      29.6325     -127.210 
-9.00434e-05      16.2171     -118.588 
-4.81753e-05      8.34535     -119.268 
0.000214285      1.28996      29.7449 
-0.000186021      16.8329     -127.469 
-4.79457e-05      15.4965     -118.020 
-0.000441168      20.5461     -123.566 
-0.000398195      11.8230     -134.726 
-0.000140071      22.6413     -132.995 
-0.000429933      13.3098     -117.181 
-0.000175100      11.0967     -132.663 
-0.000179150      13.7453     -127.670 
-4.73748e-05      19.1533     -120.635 
-0.000110615      24.0155     -122.208 
-9.35417e-05      20.6501     -120.240 
-0.00140749      3.34186     -137.911 
-4.70768e-05      22.7213     -131.717 
-0.00189381      6.74519     -123.879 
-4.68145e-05      12.8444     -117.044 
-0.000515606      2.96108     -141.582 
-0.000128650      15.9103     -122.891 
-0.000114026      20.9966     -119.691 
-0.000222219      19.2509     -125.870 
-0.000443209      24.0832     -122.106 
-0.000504986      15.5521     -126.634 
-0.000729782      14.5986     -117.408 
-8.80468e-05      8.24621     -120.296 
-8.57466e-05      15.7283     -126.520 
-0.000248247      8.78180     -120.069 
-4.61406e-05      19.0437     -120.551 
-0.000919999      10.5272     -136.848 
-0.000328752      12.8909     -118.951 
-0.000236764      14.1120     -126.935 
-0.000625446      6.81692     -144.071 
0.000175386      32.5356     -128.110 
-0.000652335      24.5320     -129.973 
-4.58787e-05      23.2552     -121.065 
-0.000576814      2.38663     -129.560 
-0.000209169      7.76495     -117.621 
-0.000126398      18.3871     -120.023 
-0.000299342      12.5072     -129.289 
-0.000737380      22.7746     -131.868 
-0.000134907      20.7192     -120.129 
-0.000333491      16.5120     -126.925 
4.55912e-05      27.8202     -130.101 
0.000782280      4.10112     -159.444 
-4.55692e-05      20.6129     -123.443 
-0.000176214      19.4823     -120.883 
-0.000259718      21.0187     -118.906 
-0.000133174      7.73191     -118.421 
-8.70160e-05      10.1193     -145.305 
-6.66852e-05      11.4847     -116.922 
-0.000835364      25.0281     -123.792 
-0.000127904      9.56326     -145.911 
-8.82467e-05      22.6959     -133.143 
-8.80346e-05      19.1126     -120.429 
-0.000127551      14.7361     -127.057 
-0.000315565      17.3113     -130.314 
-0.000125198      10.0574     -114.934 
-0.000124679      2.33649     -128.047 
-0.000490393      7.00948     -141.953 
-0.000939958      17.7241     -118.879 
-4.41674e-05      23.5005     -132.379 
-0.000647326      17.3666     -118.926 
-8.58880e-05      8.76721     -115.396 
-0.000314331      11.1510     -132.965 
-0.000129328      18.5628     -125.882 
-8.41040e-05      21.7266     -122.520 
-4.38115e-05      10.2952     -129.007 
-0.00218990      14.1331     -117.290 
-4.37046e-05      12.8524     -118.639 
-0.000122438      16.4936     -121.917 
-0.000783732      9.09611     -140.711 
0.000342336      29.5842     -127.087 
-0.000168829      20.6792     -119.937 
-4.33630e-05      13.8088     -127.467 
-0.000123490      23.2966     -121.234 
-0.000813875      27.2692     -123.877 
-0.000127654      22.6376     -133.282 
-0.000357768      9.11930     -146.449 
-5.50756e-05      8.95142     -118.856 
-4.31366e-05      20.0136     -123.754 
-7.54627e-05      20.9998     -132.993 
-0.000186347      12.0237     -117.759 
-8.41461e-05      15.0642     -117.518 
-4.30195e-05      19.5510     -120.763 
-7.34484e-05      22.8342     -131.734 
-0.000164720      10.1401     -145.934 
-0.000240034      7.72818     -117.096 
-0.000123898      19.1862     -126.010 
-0.000349205      11.5561     -116.742 
-8.43354e-05      19.0032     -120.343 
-8.29726e-05      12.7368     -116.887 
-0.000199704      9.67471     -113.385 
-0.000273361      21.0888     -118.801 
-0.000637399      17.4759     -130.544 
-4.24077e-05      23.5545     -132.522 
4.22233e-05      30.4963     -127.110 
0.000165225      23.2976     -126.201 
-0.000196910      20.9290     -122.354 
-0.000334494      6.20967     -128.199 
-0.000902999      22.4562     -119.213 
-0.000490130      10.6517     -122.735 
-0.000115139      23.0139     -131.336 
-0.000576147      17.3631     -130.515 
-0.000253989      18.5810     -125.538 
-0.000315114      25.5993     -132.213 
-0.000381385      14.6697     -117.264 
-4.14784e-05      7.69415     -117.897 
-0.000121106      3.01144     -140.389 
0.000215861     0.240000      90.0000 
-4.12629e-05      9.57062     -128.211 
-0.000659766      25.5265     -129.277 
-0.000120024      19.4413     -120.681 
-0.000313007      22.6925     -133.429 
-0.000190365      18.6276     -125.738 
-4.09911e-05      10.2724     -142.595 
-0.000365470      18.2779     -119.932 
8.02192e-05      32.5986     -128.023 
-8.04801e-05      18.9629     -120.135 
-0.000615430      2.15407     -148.671 
-4.05476e-05      8.73320     -114.922 
-0.000482555      19.5059     -118.142 
-4.05796e-05      13.0439     -128.276 
-4.04950e-05      23.3875     -132.366 
-0.000540653      20.5905     -123.752 
-0.000386235      9.53646     -130.236 
-0.000133123      20.9670     -119.989 
-0.000216351      24.3485     -130.336 
-0.000157054      19.0570     -126.293 
-0.000396924      17.6409     -130.770 
-0.000213830      15.1352     -117.378 
-0.000763588      19.5765     -118.031 
-0.000840023      20.5240     -123.876 
-0.000387404      17.8328     -118.980 
0.000718899      23.2331     -126.317 
-0.000169110      10.1300     -114.744 
7.88666e-05      29.2684     -130.788 
-0.000988838      2.95025     -139.399 
-0.000257128      20.9271     -119.799 
-0.000374324      11.6636     -116.917 
-3.97358e-05      22.8129     -132.868 
-3.96894e-05      7.69207     -116.565 
-0.000249142      13.7602     -127.203 
-3.96411e-05      23.0668     -131.485 
-0.000143545      9.02157     -118.610 
7.67533e-05      27.7688     -129.975 
-0.000152987      10.1852     -145.561 
7.58321e-05      30.2722     -127.052 
-7.66726e-05      20.6394     -119.745 
-0.000151614      17.1985     -130.283 
-0.000286902      22.8829     -130.036 
-0.000197890      8.56150     -113.691 
-3.88261e-05      7.65705     -117.368 
-3.88540e-05      23.7217     -132.677 
-3.87481e-05      14.9564     -117.387 
-0.000113418      13.1563     -128.333 
-3.86266e-05      9.80710     -146.310 
-3.86452e-05      7.62060     -116.834 
-3.84998e-05      25.1670     -129.712 
-3.84979e-05      19.0722     -120.222 
-0.000142954      17.3091     -122.735 
-0.000214385      13.2735     -116.874 
-0.000561584      25.5772     -129.415 
-0.000177509      16.7918     -118.763 
-0.000448411      8.98354     -118.163 
-3.83734e-05      14.6240     -126.995 
-0.000144771      23.2283     -121.336 
0.000153287      32.5851     -128.220 
-0.000530595      11.4827     -129.346 
-0.000542142      12.4926     -124.301 
-0.000111477      16.4257     -122.065 
-3.80991e-05      8.27565     -119.539 
-7.46245e-05      10.5120     -143.043 
-7.45872e-05      16.4641     -126.703 
-7.47090e-05      19.5102     -120.561 
-0.000146722      7.44860     -114.087 
-3.77216e-05      9.37605     -115.253 
-7.41580e-05      23.4415     -132.510 
-0.000165420      12.4453     -129.523 
-0.000354897      25.0543     -129.688 
-0.00150123      22.3567     -133.115 
-3.74486e-05      17.1396     -125.693 
-0.000140416      9.58031     -131.276 
-0.000212553      19.0321     -120.014 
-0.000104238      22.8224     -132.301 
-7.42351e-05      17.2503     -130.486 
-0.000146499      12.8688     -128.437 
-0.000948199      11.2641     -132.985 
-0.000460185      17.6932     -130.967 
-0.000385018      6.77029     -144.620 
-0.000737339      18.9925     -126.435 
-0.000247077      15.9776     -122.735 
-0.000198733      10.0240     -114.520 
-0.000202677      22.6253     -121.554 
-7.31240e-05      12.7371     -116.082 
-3.68006e-05      22.8281     -132.017 
-0.000176699      9.59633     -118.915 
-0.000244898      25.6531     -132.346 
-7.17629e-05      10.2065     -146.185 
-0.000106433      9.64324     -112.949 
-0.000586845      17.1376     -130.456 
-0.00132241      6.70522     -144.224 
-0.000849571      8.52216     -129.668 
-7.13518e-05      22.8674     -133.015 
-0.000138994      13.2687     -128.390 
-0.000426747      19.4696     -120.358 
-0.000133450      8.20614     -119.814 
-0.000138711      10.2512     -145.814 
-3.58648e-05      16.3580     -122.213 
-0.000203725      22.7476     -133.575 
0.000102634      1.22115      31.6075 
-0.000165591      20.6226     -118.752 
-0.000407924      20.1692     -124.005 
-0.000334847      12.9812     -128.494 
0.000454915      32.6479     -128.134 
-3.56050e-05      22.9611     -131.186 
-3.56230e-05      21.6161     -122.455 
-3.54414e-05      10.4000     -143.130 
-3.54534e-05      14.6880     -126.807 
-0.000306023      11.2097     -132.686 
-3.53339e-05      13.8723     -120.114 
-0.000138811      21.2890     -132.563 
-0.000328661      8.75333     -120.784 
-0.000230508      16.3045     -126.420 
-9.47312e-05      16.2556     -118.836 
-6.67276e-05      23.8396     -132.416 
-0.000415118      21.0424     -127.741 
-0.000169544      7.41631     -113.523 
-0.000156087      16.2228     -122.515 
-0.000191929      19.1044     -126.486 
-6.05231e-05      22.7687     -132.152 
9.68718e-05      30.2240     -126.931 
-3.47274e-05      20.6302     -119.249 
-6.85711e-05      12.7021     -115.758 
-0.000121567      11.2277     -124.256 
-0.000133308      21.0503     -118.610 
-3.46371e-05      20.2236     -131.954 
-0.000336826      16.6463     -122.239 
-9.98915e-05      10.5760     -143.303 
-0.000708293     0.240000     -90.0000 
3.43612e-05      27.7174     -129.848 
-6.66244e-05      16.1469     -118.724 
-0.000285045      10.2131     -139.447 
-0.000470003      24.1258     -122.267 
-3.38948e-05      17.0931     -125.475 
-0.000312791      9.50789     -112.249 
-3.37422e-05      16.2904     -122.363 
-6.63239e-05      13.3449     -116.719 
-0.000210617      16.7535     -118.523 
-0.000392418      15.2063     -117.239 
-3.36445e-05      20.2831     -131.802 
-0.000156130      23.2700     -121.504 
-9.55245e-05      13.3811     -128.446 
-6.65569e-05      17.8061     -130.992 
-0.000995658      18.1686     -119.839 
-0.000158690      13.7742     -116.565 
-0.000162500      11.3188     -133.282 
-0.000324815      20.9045     -122.656 
-3.34105e-05      25.5464     -130.173 
-6.37644e-05      24.3413     -132.869 
-9.11294e-05      21.5487     -122.569 
-0.000634988      17.2579     -118.822 
-9.67375e-05      12.6676     -115.432 
-0.000160798      10.3175     -146.064 
0.000554039      27.7278     -129.615 
-3.31055e-05      8.71266     -120.332 
-6.54472e-05      13.6482     -127.139 
-0.000120681      25.5940     -132.466 
-0.000205776      21.0584     -132.845 
-0.000206466      24.6447     -129.996 
-9.65132e-05      20.1702     -131.785 
-0.000106100      14.1760     -126.741 
-0.000119606      24.9417     -129.664 
-0.000276211      7.38474     -112.954 
-0.000427305      20.6350     -123.936 
-6.21306e-05      23.3285     -132.498 
-0.000548346      17.7537     -130.797 
-0.000125889      25.6481     -132.598 
-0.00134514      25.2279     -123.488 
0.000730191      23.1687     -126.435 
-0.000246207      12.2974     -138.428 
-0.000397486      6.16052     -127.614 
-6.36243e-05      22.8734     -130.319 
-3.21290e-05      16.8620     -118.632 
-0.000170806      10.4077     -129.072 
-0.000118200      20.2803     -124.066 
-3.20823e-05      13.0936     -128.550 
-0.000384981      22.8028     -133.721 
-6.32149e-05      15.9345     -122.493 
-0.000168343      13.3091     -116.411 
-3.19817e-05      25.7070     -132.478 
-0.000121069      16.2660     -122.752 
-6.24512e-05      15.5361     -127.047 
-0.000114617      21.2302     -132.709 
-3.16713e-05      24.7060     -129.877 
0.00210365     0.678822     -135.000 
-6.15635e-05      21.0363     -119.880 
-0.000203490      10.6403     -143.561 
-0.000150090      12.6334     -115.105 
-0.000494835      20.5525     -118.860 
-0.000613847      21.0544     -133.152 
-6.11610e-05      18.9922     -119.805 
-0.000262847      10.2740     -139.737 
-0.000364232      9.63527     -119.332 
-3.11671e-05      25.6500     -130.446 
-3.11462e-05      11.2057     -133.264 
-3.11383e-05      13.5361     -127.073 
-3.10558e-05      24.6849     -132.636 
-3.09797e-05      13.2061     -128.606 
8.73861e-05      29.5688     -127.304 
-0.000512412      14.7409     -117.121 
6.03839e-05      1.25220      26.5651 
-0.000778815      27.3357     -123.783 
-6.12244e-05      21.0121     -118.419 
-3.08566e-05      23.0069     -131.617 
-3.08604e-05      16.9353     -125.192 
-0.000149065      10.3840     -146.310 
-0.000204908      20.1169     -131.615 
-0.000347587      22.8217     -130.166 
-0.000413282      22.5572     -121.661 
-0.000570837      17.0248     -130.426 
-0.000303439      18.1290     -119.619 
-0.000670526      25.8697     -132.870 
-0.000475848      15.0986     -117.108 
-5.61223e-05      16.0020     -122.339 
-0.000435174      2.13016     -145.713 
-0.000266315      16.2571     -126.193 
3.00594e-05      23.1212     -126.275 
-0.000107465      12.9187     -128.715 
-0.000225905      19.4293     -120.155 
-0.000246926      16.1554     -122.667 
-5.86496e-05      13.3185     -128.660 
-2.97956e-05      15.5844     -127.282 
-5.67184e-05      19.5387     -120.240 
-0.000349749      7.91070     -118.379 
-2.96596e-05      21.0825     -118.315 
-0.00140936      26.0521     -124.617 
-0.000230398      18.4885     -125.134 
-8.32469e-05      8.16666     -119.327 
-2.93923e-05      25.7019     -130.582 
-0.000337657      25.3004     -133.078 
-5.31266e-05      18.3044     -126.469 
-0.000197871     0.357771     -63.4349 
-8.46188e-05      18.2381     -119.714 
-0.000266370      21.0915     -127.913 
-0.000430486      12.3573     -138.675 
-0.000677358      25.9284     -132.749 
0.000650451      23.0568     -126.393 
-0.000212808      10.0968     -114.331 
-5.70451e-05      15.8916     -122.250 
-2.88558e-05      15.5696     -127.694 
-2.87855e-05      13.3808     -116.259 
-5.64809e-05      22.8316     -129.883 
-2.87195e-05      25.1013     -125.007 
-5.67159e-05      17.5887     -130.573 
-0.000192967      12.5997     -114.775 
-0.000207606      21.0447     -118.124 
-0.00234034      7.35391     -112.380 
-0.000156158      9.05273     -146.170 
-7.40481e-05      16.0449     -122.581 
8.22676e-05      1.15378      33.6901 
-0.000434071      10.4506     -146.553 
-0.000129779      19.1014     -119.894 
-2.83882e-05      22.9769     -133.307 
-0.000235163      23.3119     -121.672 
-0.000161617      22.4173     -119.035 
-0.000866579      14.8121     -116.980 
-0.000106751      13.4309     -128.713 
-0.000486612      9.47789     -111.801 
-5.58258e-05      12.5378     -124.603 
-0.000109033      20.0040     -131.595 
-0.000210071      25.1668     -124.902 
-0.000239191      12.4964     -129.806 
-5.61487e-05      15.8174     -128.841 
-0.000262818      2.88998     -138.366 
-2.81116e-05      10.4690     -136.548 
-0.000461331      18.4426     -124.931 
-0.00109426      7.05907     -141.442 
-0.000258953      23.7848     -130.225 
-0.000106460      13.5965     -115.811 
-2.78419e-05      23.8987     -132.287 
-2.77705e-05      16.6832     -118.654 
-0.000196791      13.0312     -128.770 
-7.87834e-05      13.4402     -126.529 
-0.000434071      8.01918     -118.610 
-2.78141e-05      16.8893     -124.970 
-8.49605e-05      11.9157     -117.597 
-2.77358e-05      21.0071     -120.178 
-0.000130643      15.6967     -121.665 
-0.000246517      3.28293     -136.975 
-0.00116377     0.512250     -51.3402 
-2.75207e-05      15.8056     -129.249 
-5.34590e-05      10.6835     -140.469 
-0.000293579      11.5953     -129.401 
-5.42272e-05      13.2810     -126.180 
-0.000381509      15.8564     -129.472 
-0.000308457      25.5885     -129.163 
-7.94290e-05      22.3474     -119.134 
-0.000376787      22.8582     -133.866 
-0.000177869      17.4240     -130.344 
-7.94138e-05      10.5175     -146.793 
9.34479e-05      31.3519     -123.447 
-0.000531609      16.6450     -118.413 
-5.12122e-05      16.8436     -124.747 
-0.000201266      3.66431     -126.119 
-5.25991e-05      23.4369     -132.787 
-0.000281633      25.5381     -129.024 
-0.000526801      19.4985     -120.036 
-0.000102234      10.7048     -143.815 
-0.000412586      11.0325     -129.114 
-0.00234429      1.14543      167.905 
-4.95532e-05      24.4004     -130.479 
-0.000342751      23.7237     -130.350 
-0.000148851      11.1983     -116.748 
-0.000123202      19.9510     -131.424 
-0.000258924      26.0461     -132.510 
-0.000818040      12.5664     -114.444 
-0.000102281      24.2876     -130.458 
-0.000100938      20.2014     -133.556 
-2.61375e-05      28.5717     -133.979 
-0.000224701      9.27621     -113.912 
-4.22543e-05      14.2402     -126.548 
-0.000267278      6.21328     -145.491 
-2.59251e-05      12.3837     -129.758 
-0.000194340      20.0639     -131.444 
-0.000599232      25.3551     -133.210 
-0.000550875      28.5162     -133.863 
-0.000283451      10.9647     -147.817 
-7.00368e-05      22.1380     -119.437 
-2.55491e-05      13.0755     -125.538 
-0.00175842      16.5747     -118.544 
-0.000334145      2.43836     -131.009 
-0.000114426      10.7346     -140.140 
-2.54043e-05      17.1493     -118.717 
0.000218692      1.08812      36.0274 
-0.000208908      21.4813     -122.684 
-0.000255248      8.79454     -121.232 
-0.000414925      24.3396     -130.601 
2.51814e-05      29.8590     -130.218 
-0.000125293      19.0617     -119.685 
2.49812e-05      4.04772     -161.565 
-0.000623523      2.83746     -139.574 
-7.33130e-05      17.8665     -130.824 
-0.000505576      25.9863     -124.717 
-0.000184676      24.1686     -122.428 
-0.000276402      16.5978     -123.001 
-0.000140554      12.4350     -130.042 
-4.87055e-05      23.5499     -132.797 
-4.84599e-05      13.3456     -115.951 
-0.000343664      26.1051     -132.392 
-4.74618e-05      15.5449     -121.318 
-0.000503619      25.1211     -124.753 
-0.000270693      21.1407     -128.084 
-0.000139337      11.0909     -116.565 
-2.47037e-05      20.8369     -132.510 
-0.000196083      14.0641     -126.674 
-0.000420071      12.4175     -138.918 
-4.90795e-05      19.6471     -117.922 
-6.72263e-05      9.31751     -113.263 
-2.46519e-05      11.5336     -129.653 
-2.46127e-05      18.4694     -125.480 
-0.000117932      22.3786     -118.856 
-0.000646825      16.6415     -123.232 
-7.02908e-05      12.8718     -124.875 
2.43522e-05      30.9692     -130.810 
-6.84162e-05      9.99104     -114.102 
-4.80267e-05      21.0041     -132.685 
-0.000239908      14.8834     -116.841 
-0.000157580      15.9073     -129.695 
-0.000169127      13.2737     -116.102 
-5.53562e-05      11.8262     -123.690 
-4.63280e-05      13.6641     -126.669 
-0.000136941      10.7694     -144.067 
-0.00100179      19.7179     -117.813 
-0.000175587      6.11202     -127.020 
-4.73254e-05      19.3892     -119.950 
-7.74040e-05      8.94606     -117.711 
-0.000282149      15.5867     -121.569 
-0.000155273      22.7607     -130.295 
-0.000215790      16.2100     -125.965 
-2.38527e-05      13.0292     -125.251 
-4.38822e-05      11.2493     -123.690 
-0.000113772      20.1435     -133.713 
-3.22525e-05      2.77705     -138.504 
-0.000272946      10.7961     -140.412 
-0.000154416      20.7015     -123.813 
-0.000263145      12.4258     -139.439 
-0.000568276      3.61773     -125.096 
-6.70096e-05      13.4811     -128.978 
-9.15532e-05      17.9189     -131.017 
-2.33988e-05      16.6650     -122.851 
0.000197364      4.02313     -162.646 
-0.000243156      23.6043     -132.940 
-4.57126e-05      9.03433     -140.389 
-8.74402e-05      13.5618     -115.507 
-6.73971e-05      22.3085     -118.955 
-2.31578e-05      13.5522     -126.599 
-0.000386405      15.8459     -129.880 
-0.000547054      22.9137     -134.010 
-8.65561e-05      11.0831     -129.435 
-0.000159824      8.90914     -117.255 
-0.000225936      13.0488     -120.181 
-0.000229337      8.47132     -129.251 
-6.57972e-05      19.8981     -131.251 
-4.29644e-05      6.33618     -142.696 
-2.27518e-05      13.6165     -126.399 
-2.26960e-05      11.7597     -123.906 
-0.000156399      12.9395     -120.052 
-4.42443e-05      9.24407     -113.459 
-0.000695389      17.2195     -118.589 
2.25630e-05      28.7650     -130.601 
-6.41151e-05      18.3969     -124.727 
-0.000134196      8.66699     -113.962 
-0.000708259      24.5000     -122.600 
-2.24207e-05      8.53342     -128.911 
-0.000523460      18.4231     -125.277 
-0.000187996      20.0110     -131.272 
-0.000177507      23.3540     -121.839 
0.000124597      1.24964      129.806 
-4.40296e-05      22.7702     -130.012 
-0.000348601      23.7756     -130.497 
-6.36047e-05      16.1124     -122.428 
-8.63212e-05      8.17411     -139.764 
-2.20267e-05      10.6087     -122.372 
-2.20171e-05      20.9499     -132.524 
-0.000124659      10.0641     -113.916 
-4.24475e-05      19.1708     -119.775 
-0.000318833      16.9120     -130.396 
-9.98517e-05      9.00844     -146.592 
-0.000127446      11.1142     -110.653 
-0.000283454      20.9962     -133.302 
-0.000264336      8.69979     -114.444 
-0.000387836      9.20000     -143.130 
-8.57338e-05      17.9794     -130.850 
-2.17576e-05      9.67471     -119.745 
-0.000144157      22.3401     -118.676 
0.000207924      30.6722     -127.049 
-2.16271e-05      12.9832     -124.963 
-0.000214837      22.5313     -121.941 
-0.000104590      20.0857     -133.870 
-4.19953e-05      1.98716     -139.899 
-4.19669e-05      9.61233     -112.510 
4.18574e-05      31.0215     -130.922 
-6.15656e-05      16.7154     -118.282 
-0.000696637      20.4825     -118.968 
0.000418663      1.97585      158.629 
-2.13758e-05      9.37913     -118.532 
-2.13040e-05      20.9242     -123.143 
-0.000482383      18.3770     -125.074 
-2.12020e-05      21.2531     -128.121 
2.11689e-05     0.252982      108.435 
-2.11455e-05      24.5834     -130.116 
-0.000122743      11.0113     -110.410 
-2.10636e-05      1.98071     -136.637 
-0.000497028      21.6450     -131.704 
-8.15394e-05      21.5919     -122.748 
-6.16487e-05      12.8262     -124.582 
-0.000112808      10.8343     -144.315 
-0.000318836      11.1384     -123.576 
-0.000133775      9.74425     -119.511 
-0.000278042      8.23534     -140.123 
-0.000117667      24.3917     -130.744 
-8.04980e-05      13.5434     -128.766 
-0.000152949      22.7090     -130.142 
-0.000284260      19.7886     -117.705 
-0.000372803      18.0318     -131.042 
-0.000210270      18.2402     -126.619 
-0.00136014      1.92333     -135.000 
-6.08878e-05      11.3117     -109.845 
-4.10825e-05      17.1110     -118.482 
-0.000228644      12.5072     -140.711 
-2.05351e-05      17.6154     -118.777 
-0.000299840      19.4354     -118.253 
-0.000610085      1.25220     -116.565 
-5.68226e-05      24.8028     -132.386 
-2.04538e-05      21.3480     -132.418 
-0.00242678      20.0281     -134.029 
-5.81767e-05      24.2116     -122.587 
-0.000563664     0.252982     -108.435 
-0.000572333      12.7905     -119.612 
-0.000317508      28.4608     -133.747 
-2.02449e-05      17.4367     -118.799 
-0.000170239      11.3870     -109.708 
-0.000152626      21.1902     -128.254 
-0.000317750      15.8973     -130.101 
-0.000310920      8.83629     -121.675 
-0.000106587      20.7461     -123.996 
-0.000534658      20.9913     -123.024 
-3.93760e-05      24.1442     -122.690 
-0.000453946      20.3686     -123.628 
0.000500796      1.06733     -167.005 
-0.000204451      10.9363     -110.556 
0.000179231      23.1044     -126.552 
0.000441980      1.02450      38.6598 
-0.000486528      15.8362     -130.287 
-1.97133e-05      10.4558     -121.866 
-1.96870e-05      15.9218     -126.006 
-1.96627e-05      21.6518     -131.405 
-0.000128227      11.1556     -132.384 
-0.000639026      17.3281     -118.695 
-1.95925e-05      9.78391     -119.919 
-5.75151e-05      11.2051     -123.350 
-3.82874e-05      19.8455     -131.077 
0.000573557      1.64924      50.9061 
-0.000104094      21.5246     -122.863 
-0.000159751      11.7820     -123.366 
-0.000320856      11.7262     -138.042 
-0.000517236      16.6071     -118.170 
-0.000239089      20.4130     -123.815 
-1.94032e-05      9.58198     -112.068 
-0.000540299      29.2667     -124.081 
-0.000148589      19.9584     -131.100 
-0.000312789      28.0637     -133.845 
-5.18122e-05      16.5044     -118.677 
-0.000125962      15.1699     -116.970 
-0.000131188      9.85332     -119.687 
-0.000147519      21.6352     -122.926 
-9.24020e-05      10.1710     -109.290 
-0.000146530      8.42093     -128.830 
-9.02565e-05      6.28802     -143.276 
-9.39192e-05      22.3018     -118.496 
-0.000159122      11.0075     -147.465 
-7.31138e-05      12.7150     -124.490 
-0.000282499      12.4779     -139.160 
-0.000178201      25.4759     -129.137 
-1.90338e-05      21.6067     -130.946 
-7.33067e-05      13.5936     -129.028 
-0.000100101      12.8302     -119.922 
-1.89771e-05      9.23298     -117.897 
-0.000107944      9.89319     -120.090 
-0.000260935      9.07533     -146.870 
-0.000122753      25.0143     -129.289 
-1.88581e-05      10.0740     -112.900 
-5.56514e-05      23.7670     -130.769 
-0.000123707      21.5543     -130.786 
-0.000701494      2.89883     -140.599 
-1.86453e-05      10.4138     -121.492 
-0.000141884      9.13613     -142.829 
-7.00444e-05      13.5276     -115.201 
5.41362e-05      1.20000      126.870 
-3.57934e-05      9.55221     -111.623 
-8.66880e-05      11.7798     -137.752 
-6.97519e-05      9.01696     -117.474 
-3.26283e-05      10.2964     -145.446 
-8.43817e-05      17.5068     -118.673 
-3.60638e-05      20.9681     -123.326 
-5.43909e-05      24.1875     -122.849 
-0.000107099      10.1225     -109.867 
-1.83467e-05      8.87279     -116.796 
-3.53172e-05      22.7517     -130.579 
-0.000147054      27.4022     -123.690 
-0.000355060      11.8392     -138.013 
-1.82536e-05      13.9714     -119.501 
-0.000135616      25.2782     -124.947 
-0.000237568      23.8276     -130.643 
-5.29449e-05      18.2880     -126.820 
-5.18669e-05      16.6776     -118.040 
-5.38328e-05      22.2965     -118.036 
-0.000521629      12.6815     -119.476 
0.000494630      4.12989     -158.405 
-1.80627e-05      10.3723     -121.115 
-3.58454e-05      16.7992     -130.365 
-6.66187e-05      24.5948     -131.572 
-1.80291e-05      9.12491     -117.688 
-3.49232e-05      6.06419     -126.416 
-3.53207e-05      22.7810     -131.583 
-3.17899e-05      25.2325     -124.799 
-1.79482e-05      17.5280     -130.743 
-3.52814e-05      13.2019     -116.255 
-0.000116755      10.8994     -144.560 
-0.000266841      25.4099     -133.342 
-8.53216e-05      24.6962     -130.138 
-0.000101198      11.7153     -146.418 
0.000282392      32.7109     -128.047 
-0.000462382      8.25862     -128.313 
-0.00105931      22.9693     -134.153 
-3.53552e-05      21.0778     -128.218 
-0.000103431      16.5308     -123.152 
0.00120446      4.46927     -135.725 
-0.000112279      24.4570     -122.442 
-0.000153047      10.3624     -145.697 
-5.10477e-05      19.7930     -130.903 
-8.62583e-05      24.2310     -123.008 
-0.000150908      11.7858     -138.302 
-0.000132675      16.0200     -129.732 
-0.000364871      16.7475     -130.156 
-0.000161185      12.1484     -130.192 
-5.14911e-05      15.7752     -130.475 
-0.000262923      19.9059     -130.926 
-0.000227276      11.4624     -109.573 
-4.04275e-05      10.3312     -120.735 
-0.000346574      18.0922     -130.876 
-6.81454e-05      22.2590     -117.854 
-0.000375163      16.1802     -135.801 
-0.000181514      10.1031     -110.875 
-0.000264345      12.4566     -140.995 
-4.97200e-05      6.19367     -144.462 
-0.000736974      11.6712     -146.746 
-3.44946e-05      21.0022     -128.660 
-0.000531672      29.2004     -124.169 
-0.00105002      6.53067     -120.964 
-3.36770e-05      22.2637     -118.315 
-9.92744e-05      13.6559     -128.817 
-0.000439971      10.8334     -110.308 
-1.72410e-05      11.8716     -129.806 
-0.000144139      12.5692     -140.942 
-0.000441877      6.19109     -122.869 
-3.20231e-05      10.3197     -119.745 
-6.54913e-05      15.5186     -121.724 
-0.000327121      10.1499     -110.292 
-1.70479e-05      11.7079     -129.455 
-6.63803e-05      13.1667     -115.942 
-0.000226232      20.4125     -119.076 
-3.31700e-05      21.1274     -128.389 
-9.55862e-05      17.4152     -130.715 
-0.000155140      19.6481     -120.324 
-4.81077e-05      15.0623     -116.837 
-1.69181e-05      12.6037     -124.396 
-0.000215113      23.5458     -133.073 
-0.000390195      10.3596     -120.129 
-3.33552e-05      12.2612     -130.236 
-4.98935e-05      20.9398     -128.797 
-1.68047e-05      28.5186     -133.636 
-3.29565e-05      22.7881     -131.299 
-4.73939e-05      24.5418     -131.432 
-8.14791e-05      28.4055     -133.631 
-0.000342734      22.6997     -130.426 
-9.71567e-05      24.2747     -123.166 
-0.000139797      10.9889     -132.049 
-6.32598e-05      15.8918     -118.242 
-0.000346359      15.7845     -130.066 
-0.000148007      19.0402     -126.629 
-0.000126945      22.4690     -117.112 
-0.000411403      25.6396     -125.475 
-1.64187e-05      20.5028     -128.346 
-0.000147546      27.6241     -123.782 
-0.000462375      2.13467      12.9946 
-3.21918e-05      16.0816     -129.550 
-1.64188e-05      18.3521     -126.670 
-9.04712e-05      24.4889     -131.292 
-0.000108706      3.50634     -124.778 
-0.000118515      18.8903     -130.707 
-4.70970e-05      12.5587     -124.095 
-1.62817e-05      21.5021     -130.624 
-1.62850e-05      8.37100     -128.403 
-0.000254198      22.4635     -122.049 
-3.19293e-05      24.7438     -132.510 
-0.000332522      12.5386     -139.399 
-4.78866e-05      15.7819     -125.301 
-0.000508171      20.5525     -128.520 
-7.64192e-05      2.18358     -151.557 
-6.38672e-05      4.54876     -124.249 
-6.13555e-05      24.2268     -130.581 
-4.56304e-05      7.94904     -118.887 
-1.61675e-05      12.0266     -123.056 
-0.000891349      28.0083     -133.727 
-0.000105259      21.7895     -123.165 
-7.75841e-05      14.3046     -126.357 
-4.54481e-05      6.25895     -144.888 
-9.33538e-05      18.1593     -119.275 
-5.82020e-05      24.3312     -130.867 
-1.60559e-05      22.2259     -118.133 
-3.17359e-05      21.6788     -123.104 
-0.000138085      28.4635     -133.520 
-9.04604e-05      12.6392     -114.294 
-8.93773e-05      23.8193     -130.914 
-0.000147739      20.9901     -128.967 
-4.63048e-05      13.4937     -114.894 
-0.000186829      10.4699     -128.797 
-0.000140165      24.7478     -130.280 
-6.04667e-05      19.8390     -120.805 
-6.05894e-05      25.4817     -125.287 
-4.65445e-05      13.1319     -115.628 
-0.000237821      16.1326     -129.769 
-0.000284937      15.4930     -122.131 
-0.000132966      18.8991     -130.365 
-0.000133882      13.7062     -129.078 
-0.000653931      15.7234     -130.253 
-0.000646238      16.5747     -123.383 
0.000136609      23.2163     -126.593 
-0.000319914      4.52831     -122.005 
-0.000285099      14.9549     -116.702 
-0.000447851      24.3186     -123.324 
-5.95318e-05      8.18428     -140.553 
-6.06790e-05      10.4837     -131.597 
-0.000147346      25.4649     -133.472 
-1.54550e-05      9.15921     -117.013 
-3.06976e-05      15.7358     -125.064 
-0.000125341      6.24051     -143.865 
-0.000437559      10.5966     -131.634 
-4.45713e-05      24.2789     -130.724 
-7.24855e-05      12.9316     -128.217 
-0.000129968      11.8054     -122.829 
-2.85920e-05      21.2398     -128.424 
-1.53145e-05      24.6953     -132.111 
-4.42635e-05      23.3800     -121.569 
-0.00144790      16.1245     -136.005 
-7.22097e-05      22.7432     -130.864 
-8.81237e-05      17.3983     -118.568 
-8.77239e-05      20.3427     -119.186 
-0.000237856      8.32154     -127.972 
-0.000411235      22.5403     -117.020 
-0.000108687      18.8383     -130.522 
-5.97481e-05      8.77269     -114.228 
-1.51561e-05      15.7167     -125.470 
-0.000166039      3.57234     -124.046 
-8.72428e-05      15.8541     -117.987 
-5.84133e-05      24.6417     -131.973 
-0.000175044      11.4358     -109.195 
-4.43331e-05      12.6423     -119.160 
-7.30428e-05      18.1517     -118.711 
-1.49489e-05      15.1338     -116.701 
-3.78722e-05      11.7382     -123.040 
-7.19923e-05      12.0357     -130.147 
-5.77710e-05      9.44847     -111.351 
-4.36147e-05      13.0253     -115.463 
-7.01556e-05      12.5141     -123.792 
-1.48456e-05      2.49159     -132.397 
-1.48245e-05      8.24621     -140.906 
0.000411150      1.94813      160.821 
-7.10089e-05      13.9521     -126.607 
-1.47628e-05      20.8572     -124.056 
-5.75539e-05      15.6704     -125.232 
-0.000111482      11.5378     -109.440 
-0.000327671      19.8535     -130.752 
-7.13752e-05      28.3504     -133.514 
-4.14881e-05      12.2002     -130.479 
-0.000243793      15.0264     -116.565 
-7.16824e-05      10.5369     -131.923 
-1.46203e-05      2.25424     -152.526 
-3.96365e-05      16.2453     -129.806 
-1.45827e-05      17.9216     -126.103 
-6.74880e-05      10.9460     -144.219 
-0.000478498      14.4164     -126.425 
-6.98997e-05      13.4602     -114.585 
-6.98956e-05      13.7684     -128.868 
-0.000261423      23.8718     -131.059 
-0.000499101      8.74016     -113.749 
-0.000231690      10.1779     -110.714 
-1.44512e-05      28.6346     -133.415 
-0.000671827      12.5189     -141.226 
-5.50420e-05      17.4686     -118.443 
-8.23690e-05      20.2729     -119.296 
-8.34139e-05      1.36000     -118.072 
-4.18885e-05      28.4084     -133.403 
-0.000463932      18.1134     -118.489 
-0.000612668      16.5834     -129.912 
-7.33359e-05      9.30376     -117.667 
-7.80750e-05      20.7909     -124.179 
-0.000156315      28.6928     -133.305 
-0.000169582      21.8334     -123.341 
-2.75169e-05      9.70509     -119.100 
0.000518888      2.80913     -109.983 
-0.000739468      17.2898     -118.462 
-0.000119908      12.6514     -139.359 
-0.000219773      8.19600     -141.340 
-0.000354373      18.8474     -130.179 
-9.04114e-05      12.5335     -119.019 
-0.000127167      15.0980     -116.429 
-0.000422241      12.8847     -114.974 
-0.000284406      2.60584     -162.121 
-9.29211e-05      9.26412     -143.427 
-6.21283e-05      19.7982     -120.606 
-4.01438e-05      2.37453     -122.619 
-0.00100175      25.5200     -133.603 
-5.42667e-05      24.5883     -131.835 
-0.000447508      10.6499     -131.955 
-0.000104471      15.6244     -124.992 
-1.38475e-05      11.0426     -132.357 
-0.000296538      15.4506     -121.880 
-0.000167156     0.678822     -45.0000 
-0.000142066      15.8168     -117.732 
-0.000129844      12.0874     -130.437 
-0.000269911      19.6078     -120.122 
-4.02053e-05      20.8775     -128.934 
-2.72558e-05      11.7622     -122.501 
-2.66697e-05      21.0150     -122.722 
-1.36815e-05      10.2765     -144.825 
-5.26397e-05      24.3836     -131.009 
-3.87424e-05      18.1926     -126.416 
-0.000336555      11.6668     -137.779 
-7.64191e-05      1.86762     -9.86581 
-1.35826e-05      9.26689     -117.229 
-0.000261529      28.2954     -133.396 
1.34412e-05      30.7360     -126.959 
-0.000203427      13.8402     -126.539 
-0.000458820      4.48642     -121.139 
-2.61262e-05      24.4362     -131.151 
-0.000341001      21.2603     -122.554 
-1.33889e-05      17.8746     -125.895 
-0.000112293      6.83567     -145.008 
-9.00091e-05      13.4271     -114.274 
-1.33067e-05      19.1688     -126.344 
-6.35999e-05      13.7567     -129.336 
-6.67767e-05      14.1501     -119.464 
-8.71317e-05      20.7149     -128.729 
-5.00990e-05      9.44949     -118.301 
-5.03519e-05      16.6348     -130.123 
-0.000137171      24.5350     -131.696 
-0.000147348      11.5114     -109.065 
-6.31465e-05      20.9899     -123.811 
-6.31555e-05      13.8187     -129.126 
-0.000257068      6.99669     -141.033 
-8.93666e-05      10.7307     -110.056 
-1.31628e-05      1.28250     -3.57633 
-7.98385e-05      9.43390     -112.433 
-7.41143e-05      12.8822     -127.937 
-0.000644407      20.2031     -119.407 
-0.000183817      25.9872     -132.630 
-3.78367e-05      25.4356     -125.140 
-0.000199613      3.33802     -135.971 
-9.67386e-05      19.2163     -126.536 
-1.30271e-05      27.7351     -123.828 
-7.20114e-05      24.8089     -130.160 
-2.53803e-05      19.9664     -130.776 
-0.000173832      11.4322     -129.036 
-0.000166124      30.0240     -124.579 
-2.55608e-05      21.2896     -128.593 
-0.000501193      1.20000      0.00000 
-0.000203931      16.0712     -129.952 
-0.000355030      18.1528     -130.711 
2.51678e-05      30.6880     -126.840 
-2.53768e-05      12.4697     -123.486 
-0.000120014      11.1616     -124.487 
-3.73882e-05      13.9046     -126.342 
-1.27584e-05      12.7122     -139.594 
-0.000326314      20.6649     -128.556 
-0.000110104      25.6391     -129.302 
-3.73094e-05      9.40366     -111.982 
-2.23402e-05      10.2905     -120.353 
-0.000359358      3.63890     -123.341 
-0.000442857      3.39600     -136.909 
-4.84627e-05      13.1988     -120.606 
-9.43973e-05      8.90447     -121.405 
-6.54411e-05      1.52210     -93.0128 
-0.000372277      24.4818     -131.556 
-1.24470e-05      2.15407      15.0685 
-1.24071e-05      10.3420     -145.081 
-0.000165870      22.6116     -116.928 
-1.23739e-05      12.8192     -128.157 
-0.000206434      10.7584     -110.456 
-8.38229e-05      12.8250     -139.554 
-0.000610090      2.07692      15.6422 
-0.000144404      10.0749     -110.450 
-3.54276e-05      21.0405     -129.136 
-1.23332e-05      16.4639     -123.304 
-0.000167650      27.0041     -124.255 
-4.84504e-05      22.6910     -130.711 
-1.23020e-05      12.7785     -114.800 
-8.81552e-05      21.9442     -123.400 
-1.22657e-05      19.1953     -129.928 
-1.22604e-05      20.9682     -124.114 
-0.000288622      13.3944     -113.962 
-9.29921e-05      9.32849     -143.720 
-0.000162467      21.1772     -128.558 
-5.90063e-05      12.4258     -123.179 
-0.000165902      15.7797     -117.474 
-1.21480e-05      23.4065     -121.300 
-7.64605e-05      21.5853     -131.845 
0.000512636      1.13137     -171.870 
-2.37131e-05      17.5012     -118.088 
-6.73360e-05      11.6276     -147.075 
-0.000305325      23.0251     -134.296 
-0.000102797      25.6664     -127.656 
-4.56453e-05      12.2523     -130.764 
-2.35203e-05      21.0350     -123.207 
-1.19346e-05      10.2503     -119.967 
-2.35887e-05      20.2594     -133.400 
-0.000238616      16.0691     -136.210 
-2.36267e-05      10.3575     -128.729 
-3.43844e-05      20.9021     -124.237 
-0.000112800      13.8076     -129.593 
-9.83151e-05      24.3626     -123.481 
-8.08000e-05      22.6479     -130.272 
-9.91711e-05      13.8573     -126.076 
-1.18755e-05      10.6835     -110.606 
-0.000222951      12.8770     -139.283 
-0.000363964      23.4328     -133.063 
-1.18679e-05      21.0121     -123.509 
-1.18492e-05      11.5843     -147.407 
-1.18442e-05      19.9142     -130.601 
-0.000350379      8.13368     -140.988 
3.41310e-05      30.7521     -126.751 
-4.39458e-05      13.8693     -129.382 
-6.72688e-05      9.41182     -117.872 
-8.78379e-05      24.8907     -129.523 
-0.000198246      25.6861     -125.621 
-0.000235224      25.6176     -127.514 
-1.17066e-05      10.5806     -110.353 
-0.000163552      21.0564     -123.690 
-2.28376e-05      12.5725     -119.338 
-2.20082e-05      12.1395     -130.724 
0.000226783      23.3282     -126.634 
-0.000620603      21.8775     -123.516 
-0.000153934      18.7959     -129.993 
-5.52151e-05      16.1988     -122.905 
-0.000186293      12.4494     -122.669 
-0.000451188      18.0754     -118.266 
-2.26531e-05      8.99209     -113.600 
-4.31192e-05      11.3820     -128.723 
-5.57567e-05      25.6898     -129.440 
-2.27319e-05      10.5056     -110.505 
-4.42475e-05      11.1416     -125.059 
-1.14586e-05      19.3080     -129.958 
-1.14716e-05      28.6380     -133.189 
-0.000307144      28.2405     -133.278 
-0.000757956      22.6829     -116.836 
4.37244e-05      4.16000     -157.380 
-4.24572e-05      11.5447     -129.094 
-3.24904e-05      10.2528     -110.556 
-0.000143837      10.8970     -147.593 
0.000467040      4.08627     -156.949 
-0.000436204      11.6077     -137.514 
-2.22830e-05      12.2588     -113.051 
-0.000157808      11.2071     -124.824 
-4.39044e-05      17.5344     -117.734 
-6.55865e-05      11.4098     -108.816 
-0.000129618      22.1137     -117.585 
-9.22561e-05      1.52840     -96.0090 
-0.000375573      16.4707     -129.877 
-2.19660e-05      12.8332     -127.656 
-1.11667e-05      17.8003     -125.119 
-3.28766e-05      21.0345     -123.992 
-4.35030e-05      22.6389     -130.557 
-0.000244543      12.4065     -122.358 
-0.000247760      8.86305     -120.964 
-8.49032e-05      10.5339     -110.913 
-6.03198e-05      18.7864     -130.337 
-2.16773e-05      12.6961     -131.424 
-5.11660e-05      16.0100     -130.135 
-0.000168496      19.2641     -126.727 
-2.18424e-05      10.7629     -131.987 
-0.000284941      9.39310     -144.009 
-7.21559e-05      22.5963     -130.117 
-0.000194490      9.34118     -118.101 
-7.86083e-05      25.7328     -125.765 
-1.09021e-05      8.96036     -113.131 
-0.000295561      12.8511     -114.651 
-0.000276269      28.1447     -127.261 
-0.000405181      4.44558     -120.256 
-7.22112e-05      28.7511     -133.196 
-2.14686e-05      11.7033     -121.300 
-1.08085e-05      19.1521     -126.678 
-0.000110248      29.9787     -124.453 
-0.000532626      15.9587     -136.625 
-1.07509e-05      17.7544     -124.907 
7.99406e-05      29.5210     -126.404 
-0.000315657      16.2424     -123.142 
-3.08830e-05      8.85546     -112.859 
-5.90976e-05      19.8622     -130.426 
-0.000249020      29.1343     -124.257 
0.000175932      28.6621     -125.686 
-1.05698e-05      19.8014     -130.576 
-4.13792e-05      11.4855     -108.687 
-0.000216524      24.4288     -131.415 
8.17897e-05      30.7043     -126.631 
-0.000316884      2.73642     -164.745 
-1.96297e-05      12.3651     -139.198 
-0.000344396      12.9293     -139.014 
-3.00282e-05      18.7347     -130.150 
-0.000107607      13.8587     -129.848 
-2.06979e-05      25.7407     -129.578 
-1.04414e-05      11.3842     -108.435 
-8.80472e-05      9.97212     -110.179 
-8.81571e-05      18.7446     -129.806 
-0.000289444      30.0980     -128.850 
-6.58822e-05      18.9804     -129.527 
-1.03889e-05      18.1628     -125.860 
-1.03886e-05      12.8090     -131.455 
-3.79271e-05      12.2277     -112.706 
-2.96414e-05      8.78180     -113.062 
-1.03901e-05      17.4973     -117.502 
-0.000218956      6.94665     -141.546 
-1.03741e-05      11.0110     -144.462 
-7.69267e-05      13.9202     -129.637 
-1.02698e-05      10.6565     -131.348 
-8.56532e-05      18.8678     -129.495 
-7.56632e-05      13.7928     -126.272 
-0.000166972      1.18119     -118.301 
-3.01583e-05      17.7088     -124.695 
-7.72801e-05      10.4592     -111.069 
-4.96097e-05      22.5869     -130.403 
-0.000247436      29.3860     -128.367 
-0.000132594      15.7429     -117.216 
-2.93255e-05      11.6619     -120.964 
-0.000110404      29.2737     -128.342 
-0.000113376      12.8621     -131.722 
-0.000209401      21.1009     -123.871 
-3.90297e-05      10.3559     -110.815 
-2.93847e-05      18.1811     -125.508 
-5.85374e-05      17.5683     -117.382 
-0.000217638      14.3691     -126.168 
-1.95054e-05      20.6798     -124.120 
-1.99945e-05      25.8430     -129.851 
-1.01035e-05      19.1441     -129.744 
-1.01096e-05      10.4000     -120.510 
-0.000261974      11.4601     -108.308 
-1.00912e-05      12.3047     -131.046 
-0.000240240      25.7786     -127.688 
-4.80098e-05      13.8104     -125.808 
-8.56551e-05      18.3116     -125.218 
-0.000194659      24.5432     -122.758 
-1.95016e-05      25.8943     -129.987 
-9.89631e-06      15.1697     -116.295 
-0.000186419      28.2987     -133.167 
-3.76892e-05      18.6832     -129.963 
-0.000416430      18.2051     -130.902 
-9.06308e-05      6.88186     -125.538 
-8.86300e-05      8.82469     -112.380 
-9.67394e-06      25.9557     -129.873 
-3.55662e-05      19.7576     -120.407 
-6.87599e-05      8.05779     -119.110 
0.000152588      2.65932     -173.089 
-0.000255754      13.3622     -113.649 
-1.90919e-05      9.39106     -113.070 
-0.000149032      24.3580     -130.071 
-1.88501e-05      17.6633     -124.482 
-0.000163044      24.2959     -123.585 
-0.000335341      20.6152     -128.382 
-1.87028e-05      23.5165     -121.365 
-0.000151060      28.8059     -133.312 
-9.55733e-06      18.6935     -129.617 
-0.000189510      22.5352     -130.248 
-0.000115294      29.2883     -123.864 
-0.000224795      29.0682     -124.346 
-1.88767e-05      14.2198     -119.305 
-0.000126808      25.4568     -127.338 
-0.000183418      26.0070     -130.009 
-6.33341e-05      25.7512     -125.517 
-5.39941e-05      15.2414     -116.162 
-0.000116171      3.86161     -140.042 
-3.67400e-05      18.6319     -129.774 
-9.36920e-06      12.1231     -112.504 
-8.25748e-05      10.6038     -131.023 
-7.89295e-05      19.5678     -119.919 
-5.14926e-05      11.4352     -107.928 
-9.52108e-05      11.0023     -104.744 
-0.000158411      29.9127     -124.540 
-0.000121499      3.70600     -122.661 
0.000131692      29.4736     -126.279 
-1.81511e-05      18.2463     -125.362 
-9.26030e-05      10.2812     -110.973 
-2.67130e-05      7.87462     -110.829 
-2.68410e-05      6.86417     -143.531 
-6.03637e-05      10.5627     -111.318 
-5.90835e-05      17.6394     -117.262 
-6.92688e-05      9.86955     -109.904 
-1.81758e-05      13.9714     -129.890 
-9.09399e-06      10.6219     -140.194 
-0.000121770      25.7048     -125.372 
-1.77860e-05      22.0111     -123.286 
-2.67035e-05      18.5809     -129.584 
-9.05833e-06      10.7867     -110.854 
-4.32451e-05      9.03185     -147.295 
-9.03308e-06      16.3531     -123.224 
-0.000106805      21.4938     -130.925 
-4.20707e-05      15.3133     -116.030 
-0.000225570      21.1456     -124.051 
-0.000221010      8.07168     -140.631 
-9.01386e-06      11.6495     -120.087 
-0.000155191      18.2001     -125.157 
-7.44911e-05      15.6718     -130.030 
-0.000293981      4.40581     -119.358 
-0.000181016      8.82215     -120.518 
-1.77790e-05      14.1681     -128.811 
-4.98769e-05      10.6373     -111.161 
-8.93697e-06      19.2000     -126.870 
-5.05438e-05      24.5866     -122.914 
-2.61030e-05      23.9244     -131.204 
-0.000125027      24.2517     -123.428 
-0.000194920      13.9101     -130.101 
-3.44475e-05      16.3094     -122.989 
-5.88959e-05      6.84830     -142.595 
-1.73515e-05      17.7746     -124.548 
-7.39972e-05      10.3846     -111.228 
-6.48381e-05      1.46860     -29.3578 
-8.79045e-06      18.1348     -125.303 
-4.21212e-05      10.7119     -111.007 
-0.000136649      11.0796     -104.638 
-1.73020e-05      13.7637     -125.538 
-1.67161e-05      23.5582     -121.531 
-0.000105039      12.9155     -131.987 
-3.41342e-05      13.7456     -126.003 
-8.99123e-05      28.1296     -127.489 
-0.000104296      14.3309     -129.109 
-8.70173e-06      24.2104     -131.115 
-2.43651e-05      11.8988     -138.270 
-0.000129729      8.01359     -148.055 
-3.29756e-05      31.8798     -125.605 
-4.98128e-05      18.5300     -129.394 
-2.46348e-05      14.2184     -129.063 
-8.57373e-06      23.9322     -130.934 
8.52494e-06      27.7387     -129.382 
-4.17619e-05      3.28098     -135.000 
-1.59857e-05      21.5463     -131.086 
-0.000112256      6.83427     -141.654 
-4.10688e-05      8.69501     -115.622 
-8.68386e-05      22.0780     -123.172 
-8.48762e-06      12.4990     -125.623 
-0.000142788      1.14543     -114.775 
-5.53104e-05      21.2272     -128.727 
-4.78417e-05      12.1918     -138.991 
-8.83431e-05      22.4836     -130.093 
-8.39079e-06      9.42270     -113.518 
-6.50053e-05      13.7174     -125.266 
-0.000134036      3.80063     -139.268 
-9.53976e-05      11.3772     -136.995 
-3.94474e-05      19.3650     -118.365 
-8.70095e-05      6.92867     -126.076 
-3.17340e-05      24.8062     -123.690 
-0.000102538      29.2241     -128.219 
5.54233e-05      27.6880     -129.254 
-4.72059e-05      26.9380     -124.351 
-2.36640e-05      24.2631     -131.257 
-8.27242e-06      20.8360     -124.361 
-1.60881e-05      18.0376     -118.043 
-2.40527e-05      12.4525     -125.324 
-4.67143e-05      7.79990     -111.038 
-1.62607e-05      12.0216     -116.053 
-1.62606e-05      23.9847     -131.078 
-0.000109614      3.22490     -136.005 
-5.55731e-05      25.8420     -127.579 
3.90101e-05      1.92333      163.072 
-8.16066e-06      12.2444     -131.292 
-3.21077e-05     0.912140      142.125 
-8.13635e-06      20.7248     -124.303 
-2.38811e-05      14.3815     -129.357 
-4.65800e-05      9.79437     -110.063 
-3.90164e-05      18.4793     -129.202 
-5.45483e-05      8.75077     -112.580 
6.19772e-05      23.3760     -126.791 
-8.51526e-05      29.5981     -128.636 
-1.56715e-05      24.5223     -130.236 
-3.13060e-05      24.7619     -123.536 
-2.32452e-05      1.60798     -95.7106 
-6.18395e-05      3.66344     -121.608 
-5.39247e-05      15.3852     -115.899 
-9.20280e-05      21.8108     -123.632 
-2.34824e-05      20.7700     -124.486 
-4.64532e-05      3.22490     -133.995 
-3.06127e-05      18.4174     -129.359 
-2.28684e-05      19.5280     -119.716 
-4.57095e-05      11.4358     -137.268 
-1.56490e-05      24.0450     -130.953 
-3.04523e-05      28.1784     -127.618 
-6.90455e-05      7.55312     -151.535 
-1.53404e-05      11.6209     -120.626 
-3.09799e-05      8.76721     -117.734 
-5.35653e-05     0.850412      138.814 
-7.85982e-06      2.48902     -135.000 
-7.84840e-06      10.9401     -147.240 
-4.57798e-05      12.4690     -141.512 
-3.07753e-05      13.6713     -124.992 
-0.000106866      4.36715     -118.443 
-3.79550e-05      12.8180     -114.326 
-3.82126e-05      10.6664     -111.562 
-8.37034e-05      21.1905     -124.230 
-2.31247e-05      11.9586     -138.526 
-1.54056e-05      7.70662     -131.634 
-2.29109e-05      11.9867     -115.710 
-1.54765e-05      10.4882     -111.477 
9.11669e-05      9.69882     -151.955 
-2.29551e-05      24.4707     -130.093 
-7.76527e-06      9.89707     -110.339 
-3.78843e-05      25.4255     -128.998 
-1.52969e-05      17.8183     -117.255 
-7.71256e-06      13.6987     -125.732 
-7.68967e-06      20.5656     -128.207 
-1.51378e-05      18.9426     -130.890 
-2.25623e-05      13.6521     -125.460 
-1.50773e-05      20.1479     -124.321 
-1.52161e-05      12.7451     -114.474 
-7.61778e-06      15.7065     -116.957 
-7.59524e-06      31.9264     -125.721 
-2.25295e-05      10.3101     -111.389 
-7.56872e-06      3.41104     -129.289 
-2.25263e-05      29.9855     -128.827 
-7.56154e-06      18.1447     -131.067 
-1.50399e-05      18.8061     -129.650 
-1.50139e-05      18.0887     -125.096 
-1.49644e-05      25.8276     -127.828 
-7.51357e-06      23.9580     -132.158 
7.51297e-06      30.6566     -126.511 
-7.51343e-06      20.2646     -125.196 
-7.49348e-06      4.03822     -146.310 
-7.48723e-06      8.73027     -117.269 
-7.46841e-06      16.7085     -123.081 
-7.45676e-06      9.50486     -143.902 
-7.43392e-06      14.2690     -129.312 
-7.41770e-06      26.0585     -130.143 
-7.40449e-06      1.04307      4.39871 
