! Center RA: 12 56 11.16657,  Dec: -05 47 21.52481 (2000.0)
! Tentative model.
! Flux (Jy) Radius (mas)  Theta (deg)  Major FWHM (mas)  Axial ratio   Phi (deg) T \
! Freq (Hz)     SpecIndex
  0.325304     0.200000     -143.130 
 0.0245012     0.169706     -135.000 
0.00270280     0.256125     -141.340 
0.00510273     0.344093     -144.462 
0.00255327    0.0894427     -116.565 
0.00485342    0.0400000     -90.0000 
0.00925528     0.432666     -146.310 
0.00455672    0.0565685     -45.0000 
 0.0139956    0.0800000      0.00000 
0.00214160     0.466476     -149.036 
 0.0229583     0.521536     -147.529 
 0.0157502     0.120000      0.00000 
 0.0268692     0.555698     -149.744 
 0.0168376     0.164924      14.0362 
 0.0202396      4.38488     -133.891 
 0.0135664     0.610574     -148.392 
 0.0205530     0.203961      11.3099 
0.00284941      4.50795     -138.958 
0.00628365      4.38634     -133.152 
0.00499011      4.51221     -139.674 
0.000696598      4.38853     -132.414 
0.00440071      4.41561     -132.797 
0.00236073      4.48642     -140.064 
0.00219627      4.47214     -132.825 
0.000546237      4.45583     -139.733 
0.00104125      4.43008     -140.128 
0.000518468      4.49942     -133.199 
0.00242356      4.55596     -133.221 
0.00146388      4.39945     -139.794 
0.00132414      4.34309     -139.857 
0.00333344      4.58345     -133.586 
0.000440407      4.31741     -140.262 
0.000430275      4.26108     -140.332 
0.000420353      4.20476     -140.404 
0.00426073     0.644981     -150.255 
0.000799504      4.64000     -133.603 
0.00116640      4.14845     -140.477 
0.000393697      4.36898     -139.456 
0.000708508      4.39509     -139.059 
0.00106767      4.66768     -133.958 
0.00568847      1.41421     -151.260 
0.000714062      4.12311     -140.906 
0.000358731      4.24603     -132.709 
0.00172223     0.243310      9.46232 
0.000665835      4.42140     -138.668 
0.00160547      4.69553     -134.310 
0.00258001      4.09214     -140.553 
0.000328241      4.21900     -132.310 
0.00288913     0.291204      15.9454 
0.000878909      4.19218     -131.906 
0.000874116      4.72356     -134.657 
0.000870559      2.57775     -138.145 
0.000301607      4.45152     -139.008 
0.00163303      1.46860     -150.642 
0.000271596      4.78013     -135.339 
0.000269249      4.53819     -139.289 
0.000997783      2.60768     -138.731 
0.000756448      4.78013     -134.661 
0.000260904      4.16557     -131.496 
0.000257621      4.65549     -139.879 
0.000249908      4.13570     -131.864 
0.00221833     0.329848      14.0362 
0.000248127      4.95629     -137.944 
0.00104980      4.03584     -140.631 
0.000243517      4.74249     -140.133 
0.000667271      4.13918     -131.082 
0.000235494      4.82958     -140.377 
0.00230821     0.590593     -151.699 
0.000455895      4.10911     -131.448 
0.000229992      4.98606     -138.252 
0.000226486      4.69655     -133.620 
0.00101568      1.92083     -148.627 
0.00140465      2.58147     -139.399 
0.000220303      4.86045     -140.677 
0.000430567      5.01597     -138.556 
0.00145658      3.20624     -139.554 
0.000387549      4.80416     -140.744 
0.000205547      4.66905     -133.264 
0.000553597      4.08274     -131.028 
0.000584975      5.04603     -138.857 
0.000198153     0.468188      19.9831 
0.000197177      4.50440     -131.760 
0.000193177      4.71695     -140.505 
0.000710196     0.520000      22.6199 
0.000356731      4.39509     -130.941 
0.000350900      4.06133     -140.194 
0.000529928      5.07622     -139.154 
0.000181966      4.11300     -130.662 
0.000177850      4.47786     -131.379 
0.00133404      1.88680     -147.995 
0.000341727      4.05660     -130.601 
-0.00448032      6.10207     -124.315 
0.000480420      5.10654     -139.447 
0.000602008      4.36898     -130.544 
0.00115190      3.56786     -160.346 
0.000459378     0.572713      24.7751 
0.000301477      4.74788     -140.812 
0.000156829      5.10247     -138.814 
0.00401616     0.160000      0.00000 
0.000569595      4.03068     -139.830 
0.000298120      4.05265     -131.399 
0.000289760      4.45152     -130.992 
0.000291046      5.13264     -139.108 
0.000141008      4.02631     -130.972 
0.000605852     0.609262      23.1986 
0.000653380      5.16294     -139.399 
0.00192371     0.772528      111.251 
0.000931152      4.02274     -131.775 
0.000132196      4.83520     -141.044 
0.000251702      4.42538     -130.601 
0.000869451      3.23679     -140.013 
0.00123261      2.70732     -167.196 
0.00108453      4.34309     -130.143 
0.000618274      3.60555     -160.560 
-0.00313967      1.57785     -30.4655 
0.000342386      4.00020     -139.461 
0.000859898      5.19338     -139.686 
-0.00208124      1.96652      4.66686 
0.000564478      8.96616     -134.819 
0.000220288      4.86637     -141.340 
0.00107255      4.39945     -130.206 
0.00326230      8.99440     -135.000 
0.000397193      1.90830     -146.976 
0.000276446      3.05287     -174.738 
0.000195538      3.96989     -139.086 
0.00140016     0.662118      25.0169 
-0.000683426      1.69706     -81.8699 
9.71422e-05      4.01995     -132.580 
-0.00160733     0.724431     -96.3402 
-0.000451274      7.01655     -127.589 
0.000443986      1.37928     -150.461 
0.000858924      2.55562     -140.080 
-0.000450205      10.2482     -142.772 
-0.00118577      2.31897     -104.995 
0.000184577      5.22394     -139.970 
0.000354685      3.99299     -132.158 
-0.000358055      2.28035     -105.255 
8.94194e-05      4.89767     -141.633 
0.000986568      5.24976     -139.635 
8.75022e-05      3.93975     -138.705 
-0.00217430      5.01454     -123.944 
-0.000252581      2.29120     -106.220 
-0.000667096      10.5322     -144.741 
-0.000248848      1.96163     -106.587 
0.000240624      1.87489     -146.310 
-0.000246757      10.2164     -142.637 
0.000237483      3.99059     -132.969 
-0.000401771      4.98141     -124.200 
-0.000292004      6.99222     -127.329 
0.000441462      1.28996     -150.255 
-0.000449620      1.97342     -107.700 
-0.00174616     0.721110     -93.1798 
-0.000271159      6.13514     -124.104 
-0.000230067      10.1846     -142.500 
0.000554839      5.27576     -139.304 
0.00228119      5.37431     -135.603 
0.000360877     0.734302     -150.642 
0.000490042      3.96343     -132.546 
0.000319577      6.70403     -140.326 
-0.000217188      10.1529     -142.363 
-0.000915830      4.95903     -123.818 
7.22213e-05      3.88000     -137.925 
0.000527531      3.64330     -160.769 
0.000564016      1.89737     -145.305 
0.000414844      6.79117     -140.497 
-0.000585487      10.1143     -141.906 
-0.000204412      1.98595     -108.800 
0.000544109      4.31741     -129.738 
0.000438908     0.788923     -149.534 
0.000278884      3.09270     -174.806 
0.000125040      7.97797     -136.219 
-0.000331588      1.73666     -82.0565 
-0.000430701      1.96163     -110.283 
0.000246153      1.20067     -150.018 
0.000185025      6.87837     -140.664 
6.38254e-05      3.93650     -132.117 
0.000123881      3.93406     -132.940 
-0.00107036      5.82409     -127.185 
0.000291692     0.698570      23.6294 
-0.000803068      9.60908     -127.729 
0.000281737      3.90692     -132.510 
-0.000497787      10.0829     -141.766 
-0.000338312      9.76500     -147.547 
-0.000283678     0.680000     -90.0000 
0.000374090      6.73261     -134.037 
0.000112112      3.17591     -139.086 
-0.000153494      6.96804     -127.067 
-0.000326506      1.97585     -111.371 
5.68332e-05      5.40237     -135.300 
0.000572655     0.843801     -148.570 
-0.000466566      6.15766     -124.413 
5.54991e-05      3.81848     -135.424 
0.000204673      1.16619     -149.036 
0.000458288     0.715542      26.5651 
-0.000255396      2.34776     -103.799 
0.000153382      1.86462     -144.605 
-0.000492044     0.681175     -93.3665 
0.000345820      4.29195     -129.327 
-0.000395942      9.79878     -147.672 
5.19021e-05      3.88000     -132.075 
5.09925e-05      3.76191     -135.431 
-0.000339380      1.99078     -112.443 
-0.000339296      1.71814     -12.0948 
0.000290649      9.05097     -135.000 
-0.000289887      10.0515     -141.625 
0.000290601      10.7453     -140.741 
0.000145213      3.90978     -131.682 
-0.000145926     0.600000     -36.8699 
-0.000191742      9.79044     -133.345 
-0.000142611      10.5091     -144.919 
0.000141301      1.88807     -143.616 
-0.000142063      1.34462      149.621 
4.75813e-05      3.76191     -134.569 
4.75177e-05      10.7763     -140.875 
0.000140388      7.78614     -118.540 
4.71833e-05      6.70486     -133.791 
-9.30839e-05     0.659697      165.964 
4.64797e-05     0.708802      106.390 
-4.63047e-05      1.36528      148.173 
-4.59515e-05      2.86217     -153.435 
