! Center RA: 04 33 11.09553,  Dec: +05 21 15.61921 (2000.0)
! Established model.
! Flux (Jy) Radius (mas)  Theta (deg)  Major FWHM (mas)  Axial ratio   Phi (deg) T \
! Freq (Hz)     SpecIndex
  0.242128      0.00000      0.00000 
  0.161585    0.0600000      90.0000 
 0.0797564    0.0848528      45.0000 
 0.0180375     0.134164     -116.565 
 0.0543880     0.189737     -108.435 
 0.0898664     0.134164      63.4349 
 0.0159926     0.216333     -123.690 
 0.0356288     0.268328     -116.565 
 0.0842878     0.247386     -104.036 
 0.0189566     0.189737      71.5651 
  0.183040     0.180000      90.0000 
 0.0724836     0.305941     -101.310 
 0.0410150     0.300000     -90.0000 
 0.0590624      1.35366     -102.804 
 0.0777579     0.240000      90.0000 
0.00614075     0.360000     -90.0000 
 0.0119616      1.36821     -105.255 
0.00877578     0.543323     -96.3402 
 0.0128674      1.31042     -105.945 
 0.0393621     0.611882     -101.310 
 0.0177770     0.240000     -90.0000 
0.00222298     0.180000     -90.0000 
0.00821589      1.29522     -103.392 
0.00968332     0.189737      108.435 
 0.0414226      2.61947     -110.095 
 0.0200758     0.684105     -105.255 
0.00183346      1.23693     -104.036 
 0.0126348      1.48432     -104.036 
0.00615269      1.17881     -104.744 
0.00176330     0.305941     -78.6901 
 0.0149712      1.12089     -105.524 
0.00479843     0.436807     -74.0546 
 0.0166301     0.169706     -135.000 
 0.0188397     0.379473     -71.5651 
0.00309952     0.758947     -108.435 
0.00154325     0.483735     -82.8750 
 0.0164499      1.54260     -103.496 
 0.0188622     0.780000     -112.620 
0.00602757      1.13842     -108.435 
 0.0110180      1.60100     -102.995 
0.00331963      1.16499     -101.889 
 0.0109293     0.216333     -146.310 
0.00476998      1.10309     -112.380 
0.00561181      1.27279     -98.1301 
 0.0135881     0.189737     -161.565 
0.00301810      2.56320     -110.556 
0.00202039      1.21342     -98.5308 
0.00565915      2.64068     -111.318 
0.00739359      1.67356     -104.534 
 0.0238667     0.300000      90.0000 
0.00185786      2.29652     -109.855 
0.00633077      1.04785     -113.629 
0.00912869      1.33222     -97.7652 
0.00820067      2.22000     -108.925 
 0.0124707      2.69666     -110.854 
0.00475221     0.702282     -109.983 
0.00379382      1.73170     -104.036 
0.00562081     0.424264     -81.8699 
0.000745663      1.80499     -105.422 
0.00185924      2.27684     -108.435 
0.00326034      1.86290     -104.931 
0.00306580      2.33384     -107.969 
0.00128578      1.39169     -97.4314 
0.00173174      2.14411     -107.928 
0.00238321      1.08167     -109.440 
0.00390274      1.52971     -101.310 
0.00384871      2.77431     -111.571 
0.00117855     0.364966     -80.5377 
0.00362705      1.02528     -110.556 
0.00921572     0.626418     -106.699 
0.00470251      1.92094     -104.470 
0.00338489      2.39098     -107.526 
0.00198255      1.45986     -99.4623 
0.00212199      2.83019     -111.125 
0.00102996     0.420000     -90.0000 
0.00185427      2.46658     -108.435 
0.000506007      1.10635     -102.529 
0.00366053      2.88624     -110.695 
0.00116708      1.09490     -99.4623 
0.00605935      3.60050     -113.575 
0.000903899      2.06891     -106.858 
0.00110064      1.15412     -98.9726 
0.000895586      1.06320     -106.390 
0.00833602     0.305941      101.310 
0.000435588      1.47092     -101.768 
0.000646228      2.92219     -109.179 
0.00362331      1.14630     -96.0090 
0.00307183      1.97909     -104.036 
0.00191000      2.94245     -110.283 
0.00302622      2.44826     -107.103 
0.000493306     0.553173     -102.529 
0.00108229     0.247386     -165.964 
0.000671173      1.20599     -95.7106 
0.000384696      2.52357     -108.004 
0.00222153     0.240000      180.000 
0.000959686      2.75282     -110.410 
0.00350754      2.99880     -109.885 
0.00187513      3.57693     -112.694 
0.00215355      1.89452     -100.954 
0.00237064      2.20127     -107.447 
0.00388582     0.646220     -111.801 
0.00104563     0.569210     -108.435 
0.00303590      3.33257     -113.334 
0.00143580      3.63235     -112.329 
0.000286867      2.12641     -106.390 
0.00145690      1.07331     -116.565 
0.000720234      3.07584     -110.556 
0.00128750     0.305941      168.690 
0.00520532     0.364966      80.5377 
0.000553364      3.68793     -111.975 
0.00212516      1.88404     -99.1623 
0.00162239      3.66590     -111.105 
0.000869192      2.37360     -106.144 
0.00119568      3.92759     -108.712 
0.000470929      2.25858     -106.991 
0.000364792      3.25386     -112.782 
0.00127487      3.38774     -112.932 
0.000235451      1.08665     -96.3402 
0.00138853      3.60999     -111.448 
0.00266434     0.323110      158.199 
0.000867079      4.00385     -109.250 
0.00104252      1.08167     -93.1798 
0.000428168      2.43130     -105.751 
0.000797681      2.71860     -112.036 
0.00320860      3.98447     -108.435 
0.00107292     0.360000      90.0000 
0.000205636      1.55769     -105.642 
0.000895128      2.97893     -108.800 
0.00190515      1.87542     -97.3524 
0.000383403      1.10145     -119.358 
0.000876945      1.50000     -106.260 
0.000186994      1.02176     -86.6335 
0.000185078      3.05529     -109.502 
0.000376785      1.08000     -90.0000 
0.000727863      1.13208     -122.005 
0.000349999      2.74168     -113.199 
0.00107246      3.30926     -112.380 
0.00100614      1.02703     -83.2902 
0.000648019      1.42618     -104.621 
0.000484801      4.06054     -108.970 
0.000293240      3.64472     -110.225 
0.00181021     0.349857      149.036 
0.000168207      1.08167     -86.8202 
0.000327610      2.41570     -104.381 
0.000638699      4.41235     -112.380 
0.000320408      2.76586     -114.341 
0.000997943      1.16499     -124.509 
0.000792492      1.86869     -95.5275 
0.000440804      2.79113     -115.463 
0.000151034      2.40150     -102.995 
0.000150500      1.81593     -97.5946 
0.000991613      1.03576     -79.9920 
0.000148287      2.96014     -107.700 
0.00158193      4.49079     -112.797 
0.000688926      1.44250     -106.928 
0.000143661      2.38872     -101.592 
0.000143298      3.71080     -112.834 
0.000536585      1.80898     -95.7106 
0.000393440      3.03579     -108.435 
0.000822455      2.81745     -116.565 
0.000574962      2.43647     -99.9262 
0.000527514     0.989545     -75.9638 
0.000435022      3.81035     -116.162 
0.000441900      6.84763     -114.319 
0.000288395      2.42685     -98.5308 
0.000125230      4.08044     -109.767 
0.000518134      3.36482     -111.991 
0.000124418      1.20000     -126.870 
0.000122816      6.96465     -112.810 
0.000443101      2.24018     -110.376 
0.000474525      2.18403     -110.925 
0.000675445      1.59424     -109.799 
0.000228331      2.16333     -109.440 
0.000225528      2.86559     -109.573 
0.000411250      1.27138     -109.290 
0.000221730      2.48910     -105.376 
0.000220715      1.84835     -103.134 
0.000218386      1.18186     -113.962 
0.000215358      2.26177     -111.801 
0.000209948      2.66308     -112.521 
0.000922323     0.670820     -116.565 
0.000207328      1.25284     -106.699 
0.000206827      3.72193     -110.772 
0.000392685      1.90683     -102.724 
0.000204738      2.46000     -102.680 
0.000487231      3.23110     -111.801 
0.000375444      3.89076     -109.832 
0.000392503      1.11606     -126.254 
0.000200143      1.53792     -110.556 
0.000382676     0.617738     -119.055 
0.000196967      4.35693     -112.681 
0.000196138      2.90303     -108.060 
0.000193278     0.536656     -116.565 
0.000548647      3.96772     -110.353 
0.000192260      2.50639     -101.041 
0.000553804      4.43554     -113.097 
0.000189989      2.73708     -116.003 
0.000188769      3.42053     -111.615 
0.000188657     0.402492     -116.565 
0.000549594      6.87255     -114.775 
0.000183944      2.49560     -99.6888 
0.000181772     0.349857     -120.964 
0.000181558      2.22971     -113.806 
0.000181383      3.83437     -110.136 
0.000510570      1.15256     -128.660 
0.000179172      2.76391     -117.121 
0.00168597     0.300000     -126.870 
0.000350063      7.04329     -113.070 
0.000511516      6.81812     -114.986 
0.000174468      3.20930     -110.807 
0.000171724      2.25460     -115.201 
0.000170118      3.58848     -110.556 
0.000168983      2.55476     -99.4623 
0.00109728      7.12208     -113.325 
0.00199374     0.254558     -135.000 
0.000323132     0.976729     -79.3803 
0.000323279      3.86476     -117.759 
0.000164733      1.42618     -112.249 
0.000164388      3.13209     -110.171 
0.000162196      1.95346     -100.620 
0.000915690      6.76379     -115.201 
0.000315286      3.51141     -109.983 
0.000315343      4.02403     -110.056 
0.000159208      2.28079     -116.565 
0.000308623      2.84478     -117.646 
0.000852888     0.590931     -113.962 
0.000309241      2.54558     -98.1301 
0.000450090     0.300000      143.130 
0.000153327      1.94330     -98.8807 
0.000668164      4.56946     -113.199 
0.000151694      1.37084     -113.199 
0.000295701      3.89307     -118.540 
0.000149442      2.28473     -119.932 
0.000293542      7.20100     -113.575 
0.000398046      4.12257     -111.337 
0.000146941      3.60500     -108.435 
0.000145326      2.53779     -96.7890 
0.000278112      1.19097     -130.914 
0.000280308      2.89807     -117.096 
0.000279955      7.40897     -114.905 
0.000141531      2.47823     -96.9530 
0.000767094      6.78955     -115.659 
0.000406210      3.58647     -107.526 
0.000140117      2.26416     -122.005 
0.00106738     0.339411      135.000 
0.000759817      3.92209     -119.310 
0.000137947      1.34164     -116.565 
0.000137635      2.66443     -97.7652 
0.000265245      7.48871     -115.128 
0.000623381      7.09854     -112.881 
0.000132712      2.29652     -123.275 
0.000810752      4.20043     -111.801 
0.000235735      6.73552     -115.880 
0.000376794      2.59738     -96.6325 
0.000818893      2.92588     -118.142 
0.000996902      4.62467     -112.906 
0.000127875      2.32998     -124.509 
0.000474681      1.04785     -76.7595 
0.000323657      4.10112     -110.556 
0.000126819      7.59753     -114.744 
0.000126549      1.31727     -120.069 
0.000367398      6.70955     -115.419 
0.000125362      3.51141     -106.887 
0.000698164     0.323110      111.801 
0.000123575      7.51439     -115.542 
0.000123083      2.47168     -95.5722 
0.000237770      1.23110     -133.025 
0.000349207      6.13909     -111.801 
0.000236301      7.65206     -114.555 
0.000119794      3.56887     -106.607 
0.000233690      2.31603     -126.573 
0.000118703     0.931450     -75.0686 
0.000118001      7.48655     -116.154 
0.000117735      1.36953     -118.811 
0.000115903      2.65699     -96.4831 
0.000224636      3.49445     -105.945 
0.000221799      6.34129     -110.493 
0.000113094      7.51319     -116.565 
0.000319268      2.53140     -95.4403 
0.000111636      1.50360     -118.610 
0.000416238      7.70667     -114.370 
0.00104562      3.95181     -120.069 
0.000215656      7.07542     -112.433 
0.000109293      3.27756     -113.749 
0.000109122      7.54021     -116.973 
0.000108774      2.72389     -97.5946 
0.000308839      1.27562     -131.186 
0.000617224      8.72067     -116.565 
0.000108059      2.26813     -127.476 
0.00150865      5.47712     -114.600 
0.000649291      1.86387     -93.6914 
0.000207440      6.11706     -111.280 
0.000105379     0.948683     -71.5651 
0.000482106      7.51439     -117.588 
0.000202060      3.60999     -105.422 
0.000561506      2.30512     -128.660 
0.000270425     0.891964     -70.3462 
0.000200542      7.05274     -111.982 
0.000101293      1.58518     -119.476 
0.000192774      1.27279     -135.000 
0.000341565      1.06320     -73.6105 
9.98371e-05      3.26435     -107.103 
0.000283875      6.76192     -116.338 
9.90424e-05      4.68000     -112.620 
0.000354112      6.35689     -109.290 
0.000194262      2.59114     -95.3145 
0.000450293      2.95466     -119.168 
0.000275551      6.06119     -111.485 
0.000454211      8.77437     -116.390 
9.40306e-05     0.816088     -72.8973 
0.000184235      7.03050     -111.529 
9.37789e-05      2.40674     -94.2892 
9.32461e-05      1.66709     -120.256 
9.30261e-05      3.36268     -105.524 
0.000265843      8.29347     -115.267 
9.11705e-05      7.76137     -114.187 
0.000571944      2.52642     -94.0856 
8.94813e-05      3.42053     -105.255 
8.86821e-05      1.10635     -77.4712 
8.84388e-05      1.61555     -121.329 
0.000405569     0.494773     -104.036 
8.70207e-05      3.74171     -105.819 
0.000170365      7.00871     -111.073 
0.000627787      6.55649     -119.615 
0.000238310      6.78876     -116.792 
8.59326e-05      3.30491     -105.803 
0.000232135      1.31590     -133.152 
0.000470852      7.54236     -117.992 
0.000163661     0.364966      99.4623 
8.45581e-05      7.78614     -114.590 
8.44706e-05      4.73544     -112.341 
0.000312549      8.82816     -116.217 
0.000429606      1.12089     -74.4759 
0.000456141      6.03947     -110.956 
0.000229764      1.32136     -129.472 
0.000162342      8.01264     -110.606 
0.000947840     0.424264      81.8699 
0.000629071      9.02497     -111.448 
8.12658e-05      8.39936     -115.833 
0.000160055      3.40523     -104.281 
8.08161e-05      1.69812     -122.005 
8.07595e-05      4.64835     -113.587 
0.000152485      2.34307     -129.806 
0.000614677      3.98221     -120.816 
0.000154940      6.98736     -110.614 
0.000292605      2.90241     -119.745 
7.82445e-05      7.96939     -116.372 
7.80841e-05      4.27855     -112.249 
7.80387e-05     0.758947     -71.5651 
7.79247e-05      8.47955     -116.021 
7.76566e-05      4.76877     -111.400 
7.69811e-05      3.35410     -116.565 
0.000342567      1.86097     -91.8476 
7.62347e-05      2.25858     -129.611 
7.54879e-05      2.58627     -93.9909 
7.52449e-05      7.73698     -113.782 
0.000427799      23.3446     -112.677 
0.000205506      4.59343     -113.886 
0.000211674     0.835703     -68.9625 
0.000144672      7.99172     -110.204 
0.000375761      1.73066     -123.690 
7.38710e-05      3.28907     -104.797 
7.35951e-05      8.42567     -116.200 
0.000143161      4.80337     -110.472 
0.000142341      1.17881     -75.2564 
7.28766e-05      7.99622     -116.757 
7.27272e-05      3.65262     -104.265 
0.000206867      6.96646     -110.152 
0.000200711      4.22308     -112.557 
0.000124179      2.86056     -99.6599 
0.000138710      6.39415     -108.605 
0.000281097      2.46293     -92.7927 
7.08461e-05      3.30055     -117.031 
0.000329298      8.50604     -116.384 
0.000313300     0.384187      141.340 
0.000369098      7.48943     -118.207 
0.000193339      4.30163     -112.989 
0.000374897      9.04708     -111.801 
0.000133860      8.02342     -117.140 
0.000314815      2.29730     -130.764 
6.78217e-05      7.57071     -118.393 
0.000128930      3.44935     -103.069 
0.000319899      8.85585     -115.697 
0.000481843      2.52286     -92.7263 
0.000288700      6.81601     -117.242 
0.000130886      7.97120     -109.799 
0.000608022      6.01827     -110.422 
0.000170166      23.3678     -112.812 
0.000248047      4.83921     -109.558 
0.000128931      3.38136     -117.474 
0.000482262      2.93264     -120.763 
0.000309088      23.4000     -112.620 
6.44354e-05      1.36029     -131.424 
6.37880e-05      7.64335     -112.135 
6.37789e-05      2.93019     -100.620 
0.000281210      9.10281     -111.661 
0.000180575      6.94602     -109.687 
0.000224444     0.913893     -66.8014 
0.000431440      6.60872     -119.358 
6.18697e-05      1.35764     -135.000 
0.000119310      7.89450     -109.537 
0.000226782      9.96668     -113.787 
0.000229185      6.37526     -108.094 
0.000330617     0.436807      74.0546 
0.000118940      8.05096     -117.520 
0.000116841      1.44250     -73.0725 
0.000332383      22.9431     -112.608 
0.000166548      4.06453     -121.109 
0.000173724      10.0216     -113.649 
0.000417791      8.53288     -116.745 
0.000593125      5.33022     -121.185 
5.85033e-05      3.63830     -103.349 
5.80810e-05      3.14356     -103.241 
5.76524e-05      3.40946     -118.369 
0.000108900     0.402492      153.435 
0.000372424      23.4554     -112.563 
0.000164991      7.51798     -118.610 
0.000100004      1.92094     -91.7899 
0.000160363      4.32541     -113.720 
5.62171e-05      1.36029     -138.576 
0.000681906      16.3963     -115.815 
0.000164132      10.0528     -113.199 
0.000211350      8.07886     -117.897 
0.000163794      23.5434     -112.317 
0.000161772      7.00254     -109.522 
5.52205e-05      3.37763     -102.308 
0.000150173      4.87627     -108.658 
0.000255439      7.87464     -109.125 
0.000160193      1.46110     -70.8210 
0.000709720      1.76465     -125.311 
5.37860e-05      2.38193     -130.914 
5.36776e-05      3.71079     -104.036 
5.35342e-05     0.543323     -83.6598 
0.000105782      17.2833     -115.498 
0.000195414      9.12513     -112.011 
0.000103708      3.43837     -119.249 
5.30287e-05      2.98918     -100.408 
0.000280107      16.4764     -115.912 
5.25829e-05      23.4231     -112.755 
0.000101832     0.852760     -140.711 
5.23188e-05      22.8646     -112.527 
0.000781119      10.1080     -113.065 
0.000389194      23.5763     -112.126 
0.000827310      16.8297     -115.103 
9.99958e-05      2.25220     -131.760 
5.16186e-05     0.780000     -67.3801 
0.000141025      6.89687     -117.457 
0.000184764      1.36821     -142.125 
5.13491e-05      4.27055     -114.044 
0.000236064      17.2576     -115.318 
9.81712e-05      3.93080     -121.264 
0.000587059      1.51789     -71.5651 
0.000190550      6.98272     -109.058 
5.03057e-05      3.13037     -102.171 
0.000269951      9.93630     -114.244 
5.01411e-05     0.969330     -68.1986 
5.00485e-05      7.61244     -110.292 
0.000277024      22.8417     -112.388 
0.000143258      6.43232     -107.928 
0.000510336      4.81946     -108.886 
0.000228736      9.24312     -119.560 
4.96768e-05      23.2893     -112.733 
0.000273111      7.43661     -118.426 
0.000217707      4.01328     -121.551 
0.000256266     0.626418     -73.3008 
0.000344558     0.432666      146.310 
4.87790e-05      3.52011     -119.624 
0.000181509      8.61350     -116.922 
0.000392849     0.512640      69.4440 
0.000137314      3.05941     -101.310 
0.000519476      8.13194     -117.699 
0.000136048     0.900000     -143.130 
4.78194e-05      3.69670     -103.134 
0.000179686      23.2339     -112.791 
0.000136104      12.1035     -115.549 
0.000310135      4.29535     -114.775 
0.000173918      17.2864     -115.053 
0.000998675      11.4715     -113.749 
4.65191e-05      8.83387     -114.476 
4.65104e-05      12.1295     -115.805 
4.63904e-05      4.85741     -107.987 
4.62980e-05      9.14779     -112.360 
0.000281313      1.02528     -69.4440 
4.62541e-05      7.79838     -108.853 
0.000131080      3.55015     -120.466 
8.91060e-05      2.33692     -131.878 
0.000232984      9.93177     -115.017 
4.52697e-05      7.68492     -109.142 
4.51138e-05      9.44652     -115.589 
4.49519e-05     0.553173     -77.4712 
0.000255649      23.1001     -112.769 
0.000525734      22.7150     -109.440 
0.000284605      7.85519     -108.712 
0.000190710      12.1835     -115.682 
4.44404e-05      23.5989     -112.261 
4.43287e-05      3.17717     -100.886 
0.000126257      5.99760     -109.885 
0.000326219      9.27286     -119.883 
0.000238703      23.6319     -112.072 
4.35131e-05      9.47259     -115.916 
4.32932e-05      3.62491     -102.426 
0.000285296      6.41411     -107.418 
0.000195711      6.96336     -108.591 
0.000179026      22.7716     -109.390 
0.000500957      3.71467     -121.122 
0.000122710      23.9544     -114.254 
4.20987e-05      7.35532     -118.237 
0.000118014      2.46073     -91.3972 
0.000117303      7.66545     -108.719 
0.000218566      5.37360     -106.209 
0.000229469      9.55282     -116.082 
4.15416e-05      16.2621     -115.809 
8.05291e-05      7.05887     -117.872 
0.000245321      8.56005     -117.104 
4.11899e-05      3.11827     -101.094 
0.000440355      12.1577     -115.427 
4.07929e-05      16.2081     -115.901 
0.000562147      23.5108     -112.507 
0.000114158      2.42165     -131.987 
4.03258e-05      5.36153     -121.734 
0.000116118     0.948683     -145.305 
0.000179120      7.72231     -108.576 
0.000113289      3.04821     -100.204 
7.33886e-05      23.7100     -112.151 
0.000209152      7.38390     -118.648 
3.98171e-05     0.268328     -153.435 
0.000114808      16.1805     -116.185 
7.76274e-05      22.7407     -112.166 
7.77923e-05      1.41605     -143.616 
3.96120e-05      5.44812     -115.436 
0.000180321      2.96378     -121.759 
0.000186749     0.724983     -65.5560 
0.000108068      8.85889     -114.829 
0.000488366      5.31059     -122.074 
3.88859e-05      16.1542     -115.994 
3.87616e-05      23.9244     -114.444 
0.000180516      17.2610     -114.873 
3.86300e-05      3.23611     -100.685 
3.84756e-05      16.5566     -116.008 
0.000111555      5.94121     -110.082 
0.000231235      6.63834     -119.809 
0.000741830     0.536656      63.4349 
3.77348e-05      7.08711     -118.301 
0.000192163      3.63235     -120.801 
0.000234717      10.1632     -112.932 
0.000287570      5.50236     -115.168 
0.000106537      23.9791     -114.385 
0.000174306      16.5304     -115.821 
0.000177254     0.646220     -68.1986 
0.000116433      9.96108     -114.558 
0.000104153      6.58635     -120.069 
0.000350525     0.483735      150.255 
0.000139676      15.7314     -114.806 
9.92141e-05      23.9123     -112.576 
0.000107210      8.40792     -107.013 
0.000102001      4.14695     -121.390 
0.000138083      1.38130     -145.620 
0.000103960      22.6400     -111.942 
0.000106053      16.2071     -116.375 
0.000280451      7.30252     -118.460 
0.000335102      16.7753     -115.190 
3.60283e-05      23.4879     -112.372 
0.000237987      18.2223     -115.553 
0.000636811      1.53792     -69.4440 
6.93271e-05      23.9493     -114.575 
3.47740e-05      12.1320     -115.171 
3.46540e-05      23.1786     -112.848 
0.000505720      8.88426     -115.181 
3.45361e-05      23.9354     -112.708 
0.000159828     0.865332     -146.310 
0.000531733      2.52071     -91.3639 
0.000556333      8.39057     -106.621 
0.000159826      22.0514     -111.049 
0.000209242      6.94446     -108.122 
3.41262e-05      12.0019     -114.515 
0.000297556      9.57935     -116.405 
3.39371e-05      3.22552     -99.6375 
3.38389e-05      16.2339     -116.565 
0.000250402      7.16843     -118.496 
3.35625e-05      11.9284     -113.728 
3.35528e-05      3.49857     -120.964 
9.53711e-05      23.1554     -112.711 
6.44643e-05      7.77920     -108.435 
6.44595e-05      5.92088     -109.537 
3.28505e-05      16.1802     -116.660 
9.09753e-05      2.50639     -132.089 
6.49479e-05      11.8806     -113.199 
0.000135715      2.97893     -99.2726 
0.000314921      7.64641     -108.293 
6.03849e-05      19.4296     -115.615 
0.000113497      15.7064     -114.607 
0.000153442      16.2072     -116.850 
3.19368e-05      3.28469     -99.4623 
0.000176007      17.2359     -114.692 
9.25893e-05      24.0039     -114.515 
0.000121491      15.6518     -114.698 
5.87481e-05      8.64083     -117.277 
0.000261520      19.3755     -115.692 
8.83054e-05      3.58095     -121.293 
9.17488e-05      16.5844     -115.731 
9.08884e-05      22.6177     -111.801 
6.12058e-05      1.04785     -66.3706 
6.22395e-05      11.8571     -112.932 
3.12961e-05      2.37739     -132.955 
0.000354745      18.2765     -115.471 
3.11321e-05     0.998599     -147.265 
3.11478e-05      23.7656     -112.097 
0.000117366      2.88125     -121.373 
0.000112252      1.43122     -146.976 
3.07673e-05      5.35716     -105.593 
0.000114021      4.19829     -120.964 
0.000196699      15.4054     -115.367 
0.000112689      7.70340     -108.153 
0.000146286      11.8338     -112.665 
3.02655e-05      3.03816     -99.0903 
3.02164e-05      16.2608     -116.754 
0.000104431      9.95729     -115.330 
0.000418976      23.3178     -116.433 
0.000268883      5.86437     -109.733 
0.000266681      21.6042     -115.498 
0.000507949      6.61662     -120.518 
2.93062e-05      23.7431     -111.963 
0.000202426      5.41498     -105.422 
2.91027e-05      12.2097     -115.935 
2.89765e-05      3.21602     -98.5836 
0.000349220      24.0289     -114.645 
8.10731e-05      1.57493     -72.2553 
2.87752e-05      22.0730     -111.194 
0.000565466      8.33309     -106.739 
0.000137744      12.2637     -115.813 
5.66812e-05      16.2388     -115.145 
0.000359090     0.915860     -148.392 
0.000356043      8.10711     -118.272 
2.82958e-05      23.8665     -112.310 
2.81033e-05      22.5397     -111.716 
2.78794e-05      21.9954     -111.105 
2.77839e-05      9.92905     -115.791 
0.000155812      16.2344     -117.039 
8.07724e-05      11.8109     -112.396 
0.000363033      1.10309     -67.6199 
5.40249e-05      2.46219     -133.025 
5.32972e-05      3.27536     -98.4270 
5.37086e-05      16.6106     -115.917 
0.000127025      23.9677     -112.521 
2.72198e-05      3.79710     -121.430 
5.36698e-05      22.5955     -111.660 
0.000236497      22.0171     -111.251 
0.000185174      2.91294     -122.381 
0.000104553      11.8664     -112.286 
0.000277633      9.95530     -116.102 
5.20709e-05      23.7207     -111.828 
5.18797e-05      7.11601     -104.153 
0.000169277     0.536656      153.435 
0.000335989      5.25985     -122.421 
0.000130369      6.45384     -106.750 
9.75008e-05      17.2109     -114.510 
2.61349e-05      1.86000     -90.0000 
0.000173197      12.2899     -116.065 
5.08022e-05      11.4166     -113.871 
0.000302645      1.80000     -126.870 
0.000158928      4.22947     -121.661 
9.20496e-05      23.0769     -112.631 
0.000483114      19.3496     -115.532 
4.90958e-05      17.4711     -117.621 
0.000260631      15.6815     -114.408 
0.000140828      3.88891     -141.892 
2.53871e-05      16.2134     -114.953 
4.96980e-05      16.8043     -114.918 
4.96581e-05      22.5176     -111.575 
0.000183968      15.3512     -115.463 
2.51726e-05      2.54700     -133.091 
0.000148727      23.9908     -112.653 
0.000210817      16.6646     -115.827 
7.36154e-05      11.8437     -112.017 
0.000241945     0.670820     -63.4349 
0.000313278      7.10158     -103.684 
2.47859e-05      3.26711     -97.3860 
0.000108715      2.83019     -122.005 
4.71058e-05      7.49448     -119.233 
2.45916e-05      3.66344     -121.608 
6.81519e-05      4.78272     -109.799 
2.44592e-05      16.2879     -116.943 
7.50932e-05      2.58279     -92.6630 
0.000155505      9.92814     -116.565 
2.41319e-05      23.6985     -111.694 
0.000264048      11.3924     -113.595 
0.000133385      16.2618     -117.227 
6.93819e-05      9.60619     -116.725 
8.70279e-05      1.48189     -148.241 
0.000112941      21.6583     -115.429 
0.000409688      11.7881     -112.126 
0.000162949      12.2123     -112.533 
2.34437e-05      7.57617     -119.407 
8.21685e-05      22.4956     -111.432 
0.000110615      16.8336     -114.647 
2.34071e-05      3.33473     -98.2759 
4.00807e-05      2.20780     -132.797 
0.000121806      8.16000     -118.072 
0.000140157      18.3307     -115.391 
2.31858e-05      6.79061     -117.924 
2.31360e-05      16.1882     -114.760 
4.55594e-05      8.93859     -115.017 
2.29644e-05      23.7764     -111.775 
7.75760e-05      2.59114     -132.184 
6.55206e-05      17.4990     -117.795 
2.28175e-05      7.11576     -118.726 
0.000208425      12.3164     -116.315 
5.69473e-05      22.5734     -111.519 
6.14768e-05      8.58755     -117.460 
4.29516e-05      3.32662     -97.2532 
0.000313581      1.92094     -128.660 
2.21657e-05      6.87177     -118.131 
4.27100e-05      23.7542     -111.640 
0.000110223      22.5515     -111.377 
4.28441e-05      16.1632     -114.567 
2.17742e-05      5.47284     -105.255 
8.10487e-05      7.71788     -120.353 
0.000127403      8.91338     -114.667 
0.000117651      7.19725     -118.915 
4.26242e-05     0.566039      147.995 
4.08040e-05      5.80793     -109.933 
4.18784e-05      21.5784     -115.354 
2.14835e-05      16.3151     -117.130 
2.14421e-05      3.54203     -100.739 
0.000199220      9.52565     -116.565 
9.31521e-05      4.24985     -120.548 
2.12047e-05      5.55673     -114.905 
6.00901e-05      17.1861     -114.328 
2.09586e-05      5.05213     -105.852 
0.000409656      3.93629     -142.431 
6.10017e-05      5.45736     -104.647 
6.08724e-05      18.3593     -115.141 
9.02330e-05      6.81891     -118.369 
0.000134243     0.617738      150.945 
0.000163904      15.3255     -115.261 
0.000129697      16.8633     -114.376 
0.000397259      12.9694     -112.294 
0.000318407     0.566039      57.9946 
2.02391e-05      8.31601     -106.343 
0.000129952      17.5271     -117.969 
3.81485e-05      7.33130     -118.872 
2.01708e-05      16.0837     -114.462 
0.000352788      10.7813     -106.821 
0.000147139      16.3426     -117.318 
7.77905e-05      12.2450     -112.166 
5.49334e-05      5.58226     -115.463 
1.99843e-05      9.22089     -120.069 
7.67119e-05      21.6326     -115.286 
9.29848e-05      21.9611     -111.307 
0.000231152      2.91973     -99.4623 
1.97754e-05      23.7322     -111.506 
4.49808e-05      22.6584     -109.491 
5.59513e-05      3.25386     -95.2901 
8.78684e-05      24.0139     -112.785 
0.000197048      8.37360     -106.227 
0.000107196      18.4136     -115.062 
0.000315505      16.2893     -117.415 
0.000334395      23.2374     -116.367 
9.87874e-05      4.76273     -109.120 
7.34003e-05      5.51543     -104.490 
0.000136530     0.967471     -150.255 
1.90367e-05      23.7103     -111.371 
0.000109755      9.30290     -120.203 
1.89540e-05      5.10987     -105.668 
1.89102e-05      3.60100     -100.561 
1.88627e-05      16.1383     -114.373 
0.000273860      4.28065     -121.239 
0.000117016      1.53323     -149.421 
1.85774e-05      8.66849     -117.629 
1.84472e-05      6.92604     -107.650 
3.50472e-05      22.4737     -111.290 
0.000280580      12.2678     -112.426 
8.56898e-05      16.1137     -114.179 
0.000429865      5.29226     -122.969 
3.45000e-05      4.04678     -105.479 
5.31206e-05      12.3431     -116.565 
0.000361058      7.62779     -107.865 
1.79757e-05      22.5080     -111.092 
3.52034e-05      21.6403     -114.575 
1.78312e-05      23.6885     -111.235 
5.58177e-05      11.6055     -113.782 
5.06643e-05      7.74837     -120.735 
0.000154097      17.5484     -119.721 
3.36160e-05      5.09400     -105.018 
9.00725e-05      21.9053     -111.364 
0.000143282     0.670820      153.435 
8.18870e-05      18.4428     -114.814 
0.000105036      15.6021     -114.298 
1.73517e-05      17.9569     -115.109 
1.73264e-05      5.82865     -110.487 
1.73450e-05      22.4398     -111.488 
4.70543e-05      9.25110     -120.390 
0.000150319      5.50073     -103.885 
1.71956e-05      10.0766     -113.512 
0.000130737      19.7549     -115.164 
0.000120843      22.6220     -109.684 
3.35513e-05      12.3702     -116.192 
0.000109641      5.88490     -110.283 
4.84766e-05      23.6668     -111.100 
1.69968e-05      21.6154     -114.431 
7.98235e-05      11.3375     -113.716 
6.47776e-05      17.9026     -115.191 
0.000119611      7.08762     -103.213 
0.000286459      19.2696     -115.448 
3.31650e-05      7.27882     -119.100 
4.76555e-05      3.24888     -94.2364 
4.77440e-05      16.8386     -114.191 
3.29401e-05      21.5907     -114.286 
1.65638e-05      23.0539     -112.494 
0.000129372      16.6908     -116.012 
4.60591e-05      9.99104     -114.102 
3.14179e-05      6.51131     -106.598 
3.11563e-05      8.69648     -117.979 
-0.000679081      1.47580      26.5651 
1.62371e-05      22.3620     -111.402 
1.61414e-05      7.14479     -119.148 
1.60843e-05      6.64728     -120.964 
0.000104335      12.3968     -116.441 
5.83591e-05     0.699714     -59.0362 
0.000603068      4.45457     -94.6355 
3.10131e-05      22.5297     -111.235 
3.06526e-05      21.5661     -114.141 
7.22276e-05      11.6604     -113.663 
0.000205581      9.55263     -116.887 
0.000273618      1.62111     -177.879 
5.91298e-05      7.77920     -121.115 
0.000200709      19.8092     -115.090 
3.05555e-05      3.46808     -127.266 
3.96452e-05      6.90808     -107.176 
1.54645e-05      16.9180     -114.293 
0.000121935      17.5553     -118.142 
9.21824e-05      18.4972     -114.736 
4.49523e-05      7.22645     -119.332 
4.47361e-05      15.3000     -115.058 
9.78756e-05      16.0892     -113.984 
4.37594e-05      16.7473     -117.759 
4.02631e-05      21.4537     -110.462 
0.000274657      8.13570     -118.644 
9.55244e-05      24.0539     -114.775 
0.000238411      17.8772     -115.017 
2.97277e-05      21.6701     -114.365 
7.25882e-05      5.84992     -111.038 
1.50333e-05      10.1317     -113.377 
2.77173e-05      18.4680     -114.983 
2.77950e-05      3.67129     -101.310 
6.73146e-05      22.2284     -111.371 
0.000183935      4.72631     -110.045 
0.000174679      11.2584     -113.559 
3.93735e-05      2.86245     -123.024 
0.000112648      11.6846     -113.933 
0.000251068      6.59591     -121.232 
4.25753e-05      15.5227     -114.187 
1.45409e-05      5.90322     -116.565 
7.97850e-05      1.61555     -148.671 
1.44625e-05      17.0520     -114.310 
0.000205692      3.42053     -127.875 
1.43413e-05      21.6561     -115.784 
3.98352e-05      11.7657     -111.856 
1.42931e-05     0.782304     -57.5288 
0.000139794      1.58518     -150.524 
2.78927e-05      21.5416     -113.995 
0.000443381      12.9468     -112.048 
4.11052e-05      7.17420     -119.567 
5.03988e-05      6.49443     -106.091 
2.73661e-05      15.2747     -114.854 
1.39618e-05      21.8210     -115.226 
1.39217e-05      16.9727     -114.209 
1.39153e-05      5.93029     -117.084 
6.41583e-05     0.939149     -153.435 
8.53613e-05      24.0232     -112.466 
0.000254438     0.724983      155.556 
0.000127849      10.7641     -106.516 
0.000213074     0.600000      53.1301 
0.000184723      11.8214     -111.747 
1.37128e-05      23.7228     -111.048 
5.17889e-05      16.7753     -117.940 
1.36841e-05     0.732393     -55.0080 
1.36660e-05      5.48664     -103.276 
1.36612e-05      22.3061     -111.458 
2.55381e-05      6.84763     -118.811 
1.35309e-05      15.4434     -114.075 
1.35428e-05      8.72479     -118.327 
1.35020e-05      21.8183     -115.579 
0.000100602      12.4236     -116.689 
2.64120e-05      16.8934     -114.107 
1.34435e-05      16.1198     -113.703 
1.34331e-05      22.9755     -112.413 
8.58768e-05      7.81038     -121.492 
6.31725e-05      21.5173     -113.849 
3.68997e-05      9.98617     -114.871 
2.58065e-05      16.1908     -112.669 
3.67360e-05      15.4982     -113.985 
2.52552e-05      21.8467     -115.369 
1.31091e-05     0.984073     -37.5686 
2.49874e-05      3.24500     -93.1798 
1.29672e-05      15.3642     -113.962 
9.61259e-05      19.8635     -115.017 
7.74326e-05      2.73708     -153.997 
1.28962e-05      1.03228     -35.5377 
3.70886e-05      17.5783     -119.890 
7.16275e-05      7.20400     -119.982 
1.27419e-05      2.66443     -125.838 
1.27341e-05      15.3399     -113.758 
4.66076e-05      5.98378     -116.822 
5.97999e-05      1.50120      2.29061 
1.26442e-05      7.07415     -102.740 
9.83070e-05      9.49916     -117.051 
2.47374e-05      15.3159     -113.552 
2.27962e-05      21.8443     -115.720 
2.44665e-05      9.01399     -120.833 
0.000127863      5.54505     -103.134 
0.000265431      1.56000     -67.3801 
3.08888e-05      17.0274     -114.126 
1.23843e-05      15.2457     -115.153 
0.000105700      10.6746     -111.084 
1.23343e-05      1.08167     -33.6901 
5.64850e-05      16.7186     -115.737 
3.52579e-05      18.3849     -115.311 
1.22312e-05      2.63591     -131.309 
6.81077e-05      7.11980     -102.162 
2.17793e-05      10.1868     -113.243 
3.53271e-05      16.2232     -112.392 
7.32315e-05      9.33323     -120.522 
1.21020e-05      23.7013     -110.913 
1.19587e-05      15.2203     -114.949 
2.25212e-05      21.8494     -111.422 
2.28835e-05      16.8035     -118.121 
1.17934e-05      21.5500     -115.566 
-7.76746e-05      22.3273     -106.390 
3.45707e-05      24.0791     -114.905 
1.17792e-05      15.2369     -113.436 
7.08340e-05      16.0344     -114.071 
2.28647e-05      21.8724     -115.511 
1.15911e-05      9.04489     -121.159 
9.58741e-05      10.8216     -106.425 
0.000154650     0.993177     -154.983 
7.60449e-05      12.4507     -116.935 
9.26728e-05      17.5263     -119.988 
1.14813e-05      9.06953     -112.153 
3.22113e-05      15.2132     -113.228 
1.14419e-05      21.4931     -113.703 
5.12552e-05      23.7203     -116.759 
0.000288403      8.89661     -102.068 
0.000164388      9.98311     -115.641 
2.23768e-05      1.13208     -32.0054 
0.000126694      15.5775     -114.097 
1.12706e-05      11.3135     -113.438 
1.12424e-05      23.6587     -110.641 
0.000116109      7.84189     -121.866 
5.85398e-05      15.1914     -115.249 
1.12126e-05      14.5517     -111.275 
7.25781e-05      19.3238     -115.372 
0.000132133      24.0462     -112.598 
4.35120e-05      16.4680     -112.267 
5.29528e-05      1.62000      0.00000 
2.07854e-05      3.74219     -102.031 
4.88323e-05      22.6292     -111.463 
4.08661e-05      21.4140     -113.620 
0.000101782      14.4741     -111.140 
4.35648e-05      1.50000     -126.870 
2.14976e-05      18.5224     -114.905 
2.15883e-05      20.0563     -114.572 
2.14657e-05      22.6785     -109.633 
4.60089e-05      2.61603     -126.607 
1.09677e-05      8.99360     -121.357 
4.08640e-05      23.5338     -112.642 
0.000190847      15.0544     -117.280 
1.09082e-05      21.4381     -113.767 
4.18879e-05      24.1588     -114.974 
5.69008e-05      9.57992     -117.207 
1.08379e-05      3.24222     -92.1211 
6.94471e-05      20.6429     -114.926 
4.48214e-05      10.2419     -113.110 
8.76371e-05      7.15209     -120.222 
0.000156837      3.45769     -128.660 
1.97235e-05      9.64340     -106.631 
3.97973e-05      6.47806     -105.581 
4.12864e-05      15.0270     -117.077 
4.53841e-05      16.9482     -114.024 
3.04744e-05      21.5760     -115.710 
1.06930e-05      23.5604     -110.419 
-3.00394e-05      22.3443     -106.537 
6.65037e-05      18.4106     -115.479 
3.02578e-05      9.02497     -121.682 
1.04544e-05      1.18338     -30.4655 
7.87861e-05      16.4454     -112.073 
-0.000225584      22.4018     -106.493 
2.68767e-05      22.6073     -111.321 
3.96720e-05      7.15436     -101.121 
4.52994e-05      7.60960     -107.435 
9.93361e-05      21.4747     -110.612 
0.000112049      16.7447     -115.922 
3.90908e-05      20.0860     -114.345 
2.00227e-05      23.3445     -109.832 
1.85421e-05      9.98184     -116.411 
4.48965e-05      2.62975     -124.778 
6.56353e-05      24.1842     -115.103 
2.96683e-05      12.5042     -116.811 
1.91300e-05      3.18226     -92.1611 
3.60520e-05      3.68402     -120.324 
1.00285e-05      11.9140     -116.952 
8.27097e-05      1.68000      0.00000 
0.000164672      10.8048     -106.120 
9.82356e-06      16.8319     -118.301 
3.59926e-05      18.5769     -114.827 
4.37767e-05      9.52659     -117.372 
0.000105189     0.637809      48.8141 
3.77828e-05      11.9414     -117.209 
4.44510e-05      6.01109     -117.332 
3.47175e-05      8.50668     -117.288 
8.51746e-05      18.5978     -119.791 
6.35090e-05      21.8984     -115.652 
9.51351e-06      23.3243     -109.693 
-3.64163e-05      21.9821     -106.654 
2.74745e-05      7.19124     -100.091 
8.52152e-05      12.5314     -117.056 
9.35364e-06      23.6938     -110.454 
9.34967e-06      22.1725     -111.427 
9.33681e-06      16.2084     -117.324 
4.58473e-05      11.2346     -113.279 
6.58890e-05      23.6123     -112.721 
0.000151629      17.8228     -115.098 
0.000191895      14.4525     -110.918 
3.52256e-05      23.2275     -109.465 
4.50621e-05      5.90596     -110.829 
2.61304e-05      21.3901     -113.473 
0.000169058      16.2361     -117.512 
-0.000199169      8.97396     -94.9863 
3.39429e-05      9.05662     -122.005 
3.55403e-05      16.4229     -111.879 
0.000125086      8.11221     -119.219 
0.000135544      4.74721     -110.726 
7.94524e-05      11.2897     -113.159 
1.74686e-05      21.4700     -115.491 
8.92635e-06      23.5892     -112.586 
8.92644e-06      20.0614     -114.189 
7.92304e-05      8.82999     -115.346 
8.92653e-06      15.1896     -113.020 
1.76110e-05      1.23548     -29.0546 
3.37248e-05      6.46220     -105.068 
6.13271e-05      8.16463     -119.014 
8.86021e-06      7.24014     -99.5404 
8.84114e-06      21.8714     -111.568 
3.39938e-05      11.9157     -117.597 
3.84850e-05      23.2641     -116.499 
0.000115560      17.5563     -120.158 
-0.000117522      10.9929     -126.119 
2.55649e-05      9.36384     -120.838 
8.79871e-06      23.6729     -110.318 
0.000124702     0.780000      157.380 
8.48852e-05      24.2640     -115.171 
8.70656e-06      16.5010     -111.995 
7.28113e-05      7.23044     -99.0715 
8.68930e-06      20.1161     -114.119 
8.65537e-06      20.6177     -114.775 
-4.92982e-05      21.9246     -106.699 
7.03052e-05      7.18248     -120.635 
0.000213885     0.984073      52.4314 
8.54523e-06      16.8604     -118.480 
1.66335e-05     0.702282     -70.0169 
1.55535e-05      12.1895     -112.273 
5.30307e-05      3.18057     -91.0809 
2.45737e-05      20.4234     -111.364 
4.85646e-05      16.4786     -111.801 
2.40399e-05      20.6973     -114.856 
2.36175e-05      23.7474     -116.889 
1.64845e-05      1.86097     -1.84761 
8.28798e-06      16.2004     -112.195 
3.07652e-05      22.1506     -111.283 
2.39956e-05      11.9436     -117.852 
4.52655e-05      20.0917     -113.962 
8.23558e-06      23.3041     -109.555 
-0.000172932      2.26416     -57.9946 
8.40380e-05      5.24202     -123.326 
9.08957e-05      16.0100     -113.875 
8.10575e-06      23.7292     -110.268 
4.26866e-05      21.4959     -115.635 
0.000146541      1.92094     -1.78991 
8.00914e-06      7.75928     -121.724 
5.09259e-05      11.6364     -113.393 
8.00214e-06      8.29325     -107.255 
1.56236e-05      24.0693     -112.730 
5.18036e-05      19.2955     -115.609 
1.56346e-05      23.2076     -109.325 
-6.90371e-05      17.0774     -107.798 
5.05968e-05      18.4365     -115.648 
6.22560e-05      3.97316     -104.876 
1.55606e-05      1.28825     -27.7585 
7.91091e-06      9.39474     -121.152 
2.96279e-05      23.2841     -109.415 
4.12652e-05      8.31125     -107.650 
6.76896e-05      20.4016     -111.207 
6.11879e-05      25.2286     -115.346 
2.86351e-05      22.5856     -111.180 
7.71736e-06      21.3662     -113.325 
1.47686e-05      15.2171     -115.454 
-5.70190e-05      2.21350     -57.1715 
9.38784e-05      12.5588     -117.300 
2.23873e-05      7.79099     -122.099 
7.88472e-05      16.4564     -111.607 
7.67997e-06      9.41541     -120.651 
-0.000115588      21.8672     -106.744 
4.21076e-05      6.44686     -104.554 
6.24749e-05      11.9189     -118.242 
7.54558e-06      6.03887     -117.838 
-0.000112575      8.64083     -127.666 
3.42799e-05      3.98402     -142.958 
7.47010e-06      9.08856     -122.326 
7.43070e-06      8.25409     -109.093 
5.45242e-05      24.1246     -112.675 
4.23957e-05      9.44614     -120.964 
4.72299e-05      23.6677     -112.665 
3.28117e-05      18.6021     -114.995 
-3.98415e-05      5.94939     -131.730 
7.37055e-06      3.73593     -119.859 
5.32319e-05      20.6722     -114.705 
1.41485e-05      23.7085     -110.132 
7.91448e-05      7.27189     -98.0632 
7.31932e-06      22.2066     -111.226 
7.28518e-06      9.00580     -122.208 
2.12765e-05      8.27391     -109.486 
3.92655e-05      21.3112     -113.389 
2.08602e-05      4.21967     -119.846 
5.20275e-05     0.593970      45.0000 
7.14289e-06      1.34164     -26.5651 
3.25743e-05      10.7093     -110.669 
7.09026e-06      5.95785     -117.597 
2.72297e-05      7.82304     -122.471 
2.67681e-05      9.03792     -122.530 
1.32687e-05      5.53173     -102.529 
3.27574e-05      23.6909     -112.798 
5.80110e-05      1.96540     -31.2637 
6.96581e-06      19.3518     -117.916 
2.59353e-05      23.7746     -117.018 
1.96234e-05      5.98588     -118.106 
3.88679e-05      23.2642     -109.276 
3.28976e-05      7.21324     -121.045 
1.94956e-05      6.93123     -106.082 
2.65207e-05      16.4693     -108.699 
3.20787e-05      8.23772     -110.019 
6.78368e-06      15.1629     -115.551 
3.77593e-05      8.77581     -115.514 
1.93592e-05      3.70643     -119.055 
6.74268e-06      19.4330     -117.989 
5.68267e-05      10.8625     -106.032 
1.29988e-05      6.54468     -121.504 
1.90077e-05      22.1849     -111.082 
3.14945e-05      19.2414     -115.686 
6.64015e-06      8.75013     -115.159 
1.93210e-05      9.47715     -121.275 
6.62561e-06      24.2386     -115.043 
1.87589e-05      11.2663     -112.878 
6.60382e-06      20.0674     -113.806 
2.50150e-05      19.5994     -118.526 
-5.61815e-05      13.3457     -118.754 
3.74251e-05      16.4686     -111.142 
-1.84818e-05      22.4189     -106.640 
1.86767e-05      20.0982     -113.580 
3.09740e-05      7.85542     -122.840 
2.48237e-05      24.3184     -115.111 
1.83771e-05      5.55446     -116.288 
1.24599e-05      3.18000     -90.0000 
1.25328e-05      22.5640     -111.038 
1.25716e-05      19.3215     -117.361 
1.22766e-05      1.39556     -25.4633 
2.44893e-05      9.48911     -122.082 
3.06803e-05      16.4502     -108.501 
1.22547e-05      11.6128     -113.121 
6.29722e-06      23.6879     -109.996 
1.22369e-05      15.1889     -115.755 
-1.22483e-05      22.4764     -106.597 
1.22671e-05      12.5333     -117.669 
1.83841e-05      11.7993     -111.477 
1.81890e-05      1.15879     -68.7495 
6.23504e-06      1.74000     -90.0000 
-1.81959e-05      19.1310     -121.796 
1.21134e-05      17.0030     -113.942 
1.21134e-05      10.2971     -112.979 
6.21815e-06      23.6356     -112.855 
1.82518e-05      11.8906     -117.987 
6.19462e-06      4.16773     -120.256 
1.22518e-05      24.2031     -112.751 
6.14297e-06      23.1836     -116.432 
1.79872e-05      4.39477     -94.6987 
6.12447e-06      1.46479     -124.992 
1.20417e-05      7.24436     -121.452 
6.07276e-06      21.9525     -115.585 
1.19515e-05      6.43204     -104.036 
5.99433e-06      7.05785     -104.273 
5.99463e-06      19.2940     -117.203 
5.98476e-06      3.98898     -105.709 
5.96366e-06      3.67766     -118.237 
-1.18056e-05      21.8097     -106.790 
5.92323e-06      1.68000     -90.0000 
5.89207e-06      23.2445     -109.136 
5.88942e-06      24.1800     -112.620 
5.88256e-06      9.07032     -122.849 
5.86910e-06      12.7727     -116.204 
! Tentative model.
! Flux (Jy) Radius (mas)  Theta (deg)  Major FWHM (mas)  Axial ratio   Phi (deg) T \
! Freq (Hz)     SpecIndex
5.86238e-06      4.16773     -120.256 
