! Center RA: 08 54 48.87493,  Dec: +20 06 30.64078 (2000.0)
! Tentative model.
! Flux (Jy) Radius (mas)  Theta (deg)  Major FWHM (mas)  Axial ratio   Phi (deg) T \
! Freq (Hz)     SpecIndex
-0.0242042     0.609262     -66.8014 
-0.0112362     0.572713     -65.2249 
-0.00132092     0.847585     -70.7100 
-0.00255863     0.536656     -63.4349 
-0.00622035     0.368782     -12.5288 
-0.00193375     0.885438     -71.5651 
-0.00377520     0.898888     -69.1455 
-0.00538721     0.520000     -67.3801 
-0.00226054     0.923472     -72.3499 
-0.00321443     0.401995     -5.71059 
-0.00125617     0.936376     -70.0169 
0.00192420     0.341760      110.556 
-0.000117294     0.920869     -34.3803 
-0.00107814     0.362215     -6.34019 
-0.000317796     0.923472     -85.0303 
-0.000308547     0.954149     -33.0239 
0.00179636     0.329848      104.036 
-0.000481344     0.505964     -71.5651 
-0.000283679      1.95346     -132.510 
-0.000369973      2.30512     -128.660 
-0.000192546     0.440000      0.00000 
-0.000277978     0.920869     -87.5104 
-0.00184145     0.400000      0.00000 
-0.000178765     0.967471     -29.7449 
-8.81940e-05     0.544059     -72.8973 
-0.000405930      1.92416     -133.315 
-0.000950679     0.533667     -77.0054 
-8.50014e-05      2.33032     -129.428 
-0.000313163     0.920000     -90.0000 
0.00207749     0.304631      113.199 
-0.00104233      1.00240     -28.6105 
-0.00102697      2.36136     -128.811 
-0.000362116      3.10587     -82.6004 
-0.000530612      1.95182     -134.170 
-0.000320994     0.920869     -92.4896 
-0.00102106      3.10097     -83.3333 
-0.00155682     0.441814      5.19443 
-0.000605403     0.526118     -81.2538 
0.00315902     0.291204      105.945 
-0.000321182      1.97990     -135.000 
-0.000211753     0.923472     -94.9697 
0.000587917      10.8803     -121.470 
0.000415540      9.81664     -121.164 
-0.000139304      1.98071     -136.637 
0.000649777      5.11766     -117.967 
-0.000390124     0.927793     -97.4314 
9.22491e-05      10.2282     -121.079 
4.55491e-05      5.08236     -118.179 
-0.000173416      7.77864     -113.005 
-0.000404848      2.38663     -129.560 
0.000340536      7.12180     -128.157 
-0.000199363      2.00998     -137.420 
-0.000723948      7.57057     -100.657 
0.000161047      10.2076     -120.887 
-0.000733142      2.08959     -174.508 
0.00110193      2.03725     -46.5911 
0.000624972      5.06628     -128.589 
-0.000122116      3.06620     -82.5041 
-0.000851485      7.79436     -113.276 
0.000596793      12.7163     -122.540 
-0.000150961     0.561427     -85.9144 
-3.97311e-05      1.00240      28.6105 
-0.000112477      2.38562     -145.244 
-3.90660e-05      3.17238     -84.9364 
-3.84612e-05      1.05679      29.4759 
-3.82826e-05      3.16910     -85.6568 
0.000201728      9.79600     -120.964 
0.000248551      10.2625     -120.964 
-0.000409017      1.02215      30.5792 
-0.000109301      3.03209     -81.6561 
-0.000396680      6.00866     -107.832 
-0.000200103      3.20624     -86.4237 
-0.000103778     0.933809     -99.8658 
-0.000218329      2.20036     -152.969 
0.000136576      8.96732     -118.508 
-0.000188132      1.03769     -27.5528 
-0.000129240      2.99867     -80.7890 
6.72247e-05      8.06702     -132.790 
-0.000151123      2.47419     -145.539 
-0.000237232     0.560000     -90.0000 
-0.000249513     0.401995      5.71059 
3.29171e-05      6.33972     -132.955 
0.000462884      3.58218     -119.427 
-0.000407692      11.7663     -112.380 
0.000241748      8.94830     -118.283 
-0.000291344      2.91204     -127.185 
0.000149291      6.42358     -133.234 
0.000203266      8.09424     -132.997 
-0.000310501      10.6891     -111.284 
0.000226295      8.24776     -98.3659 
-0.000252194      12.3483     -118.225 
-0.000222523      1.84391     -77.4712 
-0.000195040      3.24395     -87.1729 
-0.000219130      5.97059     -107.949 
0.000110180      5.09902     -117.570 
-8.09528e-05     0.973242     -99.4623 
-0.000108720     0.486621      9.46232 
0.000108062      12.7178     -125.140 
2.81496e-05      5.98505     -142.058 
-0.000108485      10.4538     -131.743 
5.40975e-05      9.76172     -121.085 
0.000161033      10.8584     -116.471 
-0.000133726      11.3071     -119.921 
2.75635e-05      8.91309     -118.405 
0.000106519      6.54877     -115.313 
5.31371e-05      7.04477     -100.800 
7.96733e-05      12.6948     -122.388 
0.000105652      8.89413     -118.179 
5.31154e-05      6.99806     -100.539 
7.87740e-05     0.483322     -155.556 
2.63320e-05      5.01007     -128.517 
-2.60417e-05      10.4805     -131.906 
2.59924e-05      6.00973     -141.757 
2.58452e-05      8.12158     -133.204 
-2.57751e-05      8.20926     -127.875 
