! Center RA: 12 24 54.45839,  Dec: +21 22 46.38856 (2000.0)
! Established model.
! Flux (Jy) Radius (mas)  Theta (deg)  Major FWHM (mas)  Axial ratio   Phi (deg) T \
! Freq (Hz)     SpecIndex
  0.292734    0.0848528      45.0000 
  0.138447      0.00000      0.00000 
 0.0796554     0.384187     -128.660 
 0.0313908     0.424264     -135.000 
 0.0780345     0.468615     -129.806 
 0.0120400     0.169706      45.0000 
 0.0111863     0.254558      45.0000 
 0.0855547    0.0848528     -135.000 
 0.0332820     0.339411      45.0000 
 0.0682205     0.553173     -130.601 
 0.0296932     0.424264      45.0000 
 0.0248700     0.468615      39.8056 
0.00929842     0.553173      40.6013 
 0.0254207     0.637809     -131.186 
0.00301976     0.593970     -135.000 
0.00581824     0.134164      63.4349 
0.00292688     0.637809      41.1859 
0.00833917     0.684105      37.8750 
 0.0515808     0.216333     -123.690 
 0.0297173     0.216333      56.3099 
 0.0235704     0.768375      38.6598 
 0.0325282     0.678822     -135.000 
0.00244507     0.169706     -135.000 
 0.0221335     0.852760      39.2894 
 0.0319748     0.722496     -131.634 
 0.0113069     0.189737      71.5651 
0.00328410     0.300000      53.1301 
0.00624689     0.816088      36.0274 
 0.0118641     0.900000      36.8699 
0.00262901     0.516140      35.5377 
0.00874924     0.180000      90.0000 
0.00132124     0.648999      33.6901 
 0.0268463     0.763675     -135.000 
0.00228259     0.566039      32.0054 
0.00650267     0.948683      34.6952 
0.00703254     0.189737      108.435 
0.00428993     0.699714      30.9638 
 0.0181074     0.268328     -116.565 
0.00370770     0.617738      29.0546 
0.00280065      1.03228      35.5377 
0.00187078     0.998599      32.7352 
0.00569264     0.216333      123.690 
0.00252704      1.08167      33.6901 
 0.0150196     0.670820      26.5651 
0.00371385     0.216333      146.310 
0.00308984      1.13208      32.0054 
0.000858142     0.816088      53.9726 
0.00255637      1.18338      30.4655 
0.00838813      2.46000      12.6804 
 0.0159098     0.804984      63.4349 
0.00429628      1.23548      29.0546 
0.00627364     0.254558      135.000 
0.00462052     0.722496     -138.366 
0.00845766     0.724983      24.4440 
0.00531097     0.268328      153.435 
0.00266507      2.40150      12.9946 
0.00463906      1.28825      27.7585 
0.00505539      1.34164      26.5651 
0.000460017      2.71662      6.34019 
0.000456265      2.28473      13.6713 
0.00665995      3.36856     -4.08562 
0.000446176      2.22648      14.0362 
0.00200563      2.77626      6.20345 
0.000434170      2.51857      12.3808 
0.00128015      2.11026      14.8265 
0.00756632      1.39556      25.4633 
0.00236078      3.30872     -4.15964 
0.000410438     0.305941     -101.310 
0.000410058      2.57721      12.0948 
0.00318076      2.05232      15.2551 
0.000767645      2.63591      11.8215 
0.00102506     0.751798      28.6105 
0.00140914     0.300000     -90.0000 
0.00172446     0.305941      168.690 
0.00419391      1.99449      15.7086 
0.00136677      2.69466      11.5601 
0.00242772     0.780000      67.3801 
0.00590150      3.73738      5.52754 
0.00123958      2.70599      3.81407 
0.00214280      1.31590      24.2277 
0.00483586     0.268328      116.565 
0.00121153     0.305941     -78.6901 
0.000313056      2.77042      4.96974 
0.00185464      4.17507     -7.43141 
0.00164698      2.70732      12.8043 
0.000554967     0.300000      180.000 
0.00292943      2.84289      7.27500 
0.00350765     0.360000      180.000 
0.00124368      1.37084      23.1986 
0.00271189      4.23457     -7.32641 
0.00267127     0.402492     -63.4349 
0.000512581      2.64273      2.60256 
0.000260821      2.44311      24.6769 
0.00198825     0.300000      90.0000 
0.00141179      2.49776      24.1022 
0.00376510      4.32000      0.00000 
0.00532878     0.768375     -141.340 
0.00318515      2.90241      7.12502 
0.000227616      2.85237      14.6209 
0.000227613      2.64068      1.30195 
0.00217472     0.364966     -170.538 
0.00127775      11.1196      3.40277 
0.000430464      2.01693      30.3791 
0.00140730      2.82574     -3.65222 
0.000217804      2.86810      15.7808 
0.000837440      3.18961     -16.3895 
0.00141818      4.29409     -7.22432 
0.00247946     0.432666     -56.3099 
0.00149713      2.92588      15.4612 
0.000400411      2.55265      23.5523 
-0.00276999      1.26570      58.5704 
0.000396447      3.37337     -5.10217 
0.00114601      1.96540      31.2637 
0.00174771      3.24721     -16.0908 
0.00358544      11.1761      3.07746 
-0.00226630      1.23548      60.9454 
0.000873862      4.32208     -13.6504 
0.00100411      2.60776      23.0255 
0.00124301      4.35362     -7.12502 
0.000702920      10.6405      3.55618 
0.000468348      3.43313     -5.01311 
0.000983755      2.88998     -4.76364 
0.00167529      5.67563     -13.4486 
0.00119300      3.63186     -7.59464 
0.00169925      1.91437      32.1957 
0.000653290      4.41316     -7.02840 
0.000705685      4.38041     -13.4652 
0.00102776     0.742159     -104.036 
0.000935643      4.38000      0.00000 
0.000169707      3.26435     -17.1027 
-0.00398779      1.21491      57.0948 
0.00147578      4.39477     -14.2260 
0.00145450      2.54275     -19.2900 
0.00282365      3.32175     -16.7984 
0.00244036      11.1117      6.51102 
0.00113041      2.94245      16.5873 
0.00184147      10.5806      3.57633 
0.00115913      4.32042     0.795724 
0.00100858      4.99191     -13.2011 
0.000302523      2.76586     -3.73140 
0.000301279      4.47272     -6.93435 
0.00180735      3.67766      5.61758 
0.000708610      4.53228     -6.84277 
0.000949455      11.0441     -1.55657 
0.000895802      3.65262      14.2645 
-0.000814002      22.0161     -11.1568 
0.000676041      1.93680      16.1892 
0.000513988      2.83019     -4.86451 
0.000391046      2.69666      20.8545 
0.000506497      4.92000     -12.6804 
0.000897196      1.86387      33.1785 
0.000133598      3.69134     -7.47156 
0.000514770      4.59186     -6.75357 
0.000508740      1.80000      53.1301 
0.000807268      4.33663     -14.4208 
0.000477398      17.2359     -7.19923 
0.000250752      11.5108     -5.38370 
0.00104199      4.38041     0.784825 
-0.000739240      20.2320     -26.4131 
0.00170713      5.46824     -3.14496 
0.000125549      11.5705     -5.35583 
0.00256967      12.2278      5.06716 
0.000388703      4.16773     -6.61346 
0.00114325      12.2876      5.04245 
0.000121303      4.65145     -6.66666 
0.000630411      2.77950      13.7363 
0.000213387      2.76586      12.5288 
0.00106667      3.56483     -6.76618 
0.000323722      2.85110      8.47114 
0.000196788      2.79435      14.9314 
0.000374618      2.81041      16.1134 
0.00141932      4.22734     -6.51980 
0.000188237      2.14411      17.9279 
0.00132406      3.57239     -7.72183 
0.000511402      2.08710      18.4349 
0.000517100      2.88500      16.9275 
0.00100186      4.89690     -7.03794 
0.000915529      2.01157      17.3540 
0.000173325      4.88991     -6.34019 
0.000646795      10.5002     0.327401 
0.000910705      4.94955     -6.26349 
0.000166331      10.5602     0.325541 
0.000166107      4.16255     -15.0378 
0.000162706      2.84605      18.4349 
0.000598925      2.06891      16.8584 
0.00130467      4.00565     -16.5348 
0.000160577      2.52071     -1.36393 
0.000156354      5.00919     -6.18862 
0.000154152      2.90303      18.0605 
0.00130755      4.97855     -12.5288 
0.00162475      11.0426     -1.24536 
0.00185268      5.35212     -3.85680 
0.000152175      2.58279     -2.66300 
0.000579465      10.3802     0.331186 
0.00144718      1.83172      31.6075 
0.000428595      2.86559      19.5731 
0.000676874      3.61796      5.71059 
0.000544521      1.92000      0.00000 
0.000662874      11.2360      3.06103 
0.000756820      1.04957      30.9638 
0.000141531     0.339411     -135.000 
0.000404626      3.36268     -15.5241 
0.000402385     0.300000     -126.870 
0.000515777      3.50525     -6.88172 
0.000265123      10.3202     0.333111 
0.000380875      4.95645     -6.95296 
0.00188112      1.87446      50.1944 
0.00143703      11.2309      6.44160 
0.000290074      2.88624      20.6955 
0.000131456      2.64613     -3.90049 
0.000256877      10.6202     0.323702 
0.000129903      4.22052     -14.8265 
0.00117436     0.323110     -111.801 
0.000601297      10.5207      3.59672 
0.000882305      2.94245      20.2826 
0.000575408      3.30491     -15.8025 
0.000578874      10.2602     0.335059 
0.000779209      3.96590     -17.6126 
0.00180905      5.03714     -12.3808 
0.000561452      1.86000      0.00000 
0.000120712      4.27855     -14.6209 
0.00222625     0.305941      101.310 
0.000614604      11.2929      2.74079 
0.000301457      3.44569     -7.00127 
0.000642302      11.3208     -4.86451 
0.00105597      10.6802     0.321883 
0.000112217      11.2959      3.04478 
0.00133814      5.40833     -3.17983 
0.000506107      2.79177      8.65254 
0.000886817      11.7784      8.79054 
0.000874047      10.4608      3.61733 
0.000108754      2.77042     -4.96974 
0.000381412      4.28696     -6.42875 
0.00147641      12.5926      7.66680 
0.000204224     0.349857     -120.964 
0.000786835      11.3858     -5.13976 
0.000103029      10.2002     0.337030 
0.000102018     0.364966     -80.5377 
0.000664026      3.37923     -16.5044 
0.000936263      1.86097     -1.84761 
0.00104563      11.3286     -17.5713 
0.000626705      10.1400      0.00000 
0.000546986     0.379473     -71.5651 
0.000864893      3.59450      14.5002 
0.000513239      3.90876     -17.8787 
0.000447746     0.637809     -138.814 
0.000614863      3.31958     -6.22583 
0.00180458      5.00919      6.18862 
0.00182021     0.984073      127.569 
0.000497881      11.3806     -4.83890 
0.00120255      1.86869      47.6026 
0.000676515      15.4303     -12.5771 
0.000600977      13.0822      1.05118 
0.000418425      2.99880      19.8852 
0.000425277      12.1735      5.37340 
8.98035e-05      11.3858     -17.4801 
0.000570055      17.0498     -7.07500 
0.000331479      11.8046     -17.1456 
0.000784545      22.2195     -15.9879 
0.000530302      11.3528      2.72631 
0.00202483      11.1713      6.47612 
0.000640482      2.46658     -18.4349 
0.00121592      11.7284      9.12501 
0.000369387      4.44000      0.00000 
0.00226650      5.38164     -22.2759 
0.000304678      1.81395      34.2157 
0.000429027      11.4455     -5.11285 
0.000588885      10.4010      3.63819 
0.000279880      3.25994     -6.34019 
0.00147865      4.31208     -21.2092 
0.000818106      15.3587     -12.4074 
0.000882521     0.684105     -142.125 
0.000326188      3.49445      15.9454 
7.80756e-05      13.2012     0.781258 
0.000434863      12.4944     -2.75249 
0.000357887      10.0864     -2.04541 
0.000755420      13.2612     0.777723 
0.000357651      5.09576     -12.2361 
7.53334e-05      2.75347      11.3099 
0.000523335      12.2332      5.34708 
7.50789e-05      2.71065     -5.07961 
0.000312972      11.8620     -17.0601 
0.000529876      16.9234     -6.92345 
0.000279982      13.7090     -6.53404 
0.000142561      15.5605     -12.6966 
0.000205904      19.0876     -15.8712 
0.000265839      3.07584      20.5560 
7.08196e-05      5.02462     -11.7125 
0.000329873      1.79800      64.2900 
0.000840937      9.46290      5.45755 
0.000259554      12.4819      8.01325 
0.000133328      15.6323     -12.8628 
-0.00259063      6.41579     -24.8874 
0.000198119      11.6692      9.17173 
0.000231775      3.85170     -18.1527 
0.000341538      1.80100     -1.90915 
0.000436722      22.2771     -15.9454 
0.000246429      10.6581     -4.84400 
0.00132322     0.960000      0.00000 
0.000567307      3.05941      41.8202 
0.000589775      13.7687     -6.50563 
0.00128361      12.6173     -2.99847 
0.000309360      1.82779      66.8014 
0.000300569      4.43878     -13.2849 
0.000191901      11.2161      10.1678 
0.000642132      13.2974     -8.82478 
0.000642678      5.28136      1.30195 
0.000637321      10.0887     -2.38594 
0.000237301      18.5985     -14.5742 
0.000616511      15.6908     -12.8140 
0.00113234      7.81130     -3.08218 
0.000160928      2.58627     -3.99091 
0.000731532      17.2904     -24.6085 
0.000378008      16.7375     -6.79383 
0.00116544      16.8627      1.01939 
0.000178811      5.41465     -12.8043 
6.06224e-05      11.4101      2.41103 
-0.000522962      20.4199     -26.3392 
0.000115448     0.364966      170.538 
0.000116395      19.2195     -15.9454 
6.04348e-05      10.3779      8.64542 
0.000176210      13.3212     0.774220 
0.000220227      11.1571      10.2222 
0.000211047      1.76465     -17.8189 
0.000977843      10.3186      8.69550 
0.000168109      11.5856      1.78064 
0.000715423      12.3716      8.36589 
5.78374e-05      17.7001     0.194222 
0.000309692      18.6565     -14.5278 
0.000404861      11.1026     -1.23863 
0.000704156     0.323110      111.801 
0.000320109      17.7601     0.193566 
0.000163257      13.5831     -6.34019 
0.000654254      2.40973     -18.8861 
0.000872302     0.732393     -145.008 
0.00120364      13.4405     0.511556 
5.60715e-05      5.47317     -12.6651 
0.000345410      11.1961     -17.4639 
5.54738e-05      10.4049      3.96792 
0.000408756      1.80499      68.5523 
0.000548376      11.2634      14.1843 
0.000303690      2.78338      7.43141 
0.000158686      20.0238     -13.8697 
0.000513876      22.4090     -16.0086 
0.000439487      16.1247     -4.26789 
0.000302009      17.3700     -3.36646 
0.000359306      5.54505     -13.1340 
0.000102355      19.4090     -15.9697 
0.000147817     0.782304      85.6013 
0.000430619      5.60350     -12.9946 
0.000101133      11.6456      1.77147 
0.000692634      8.29867     -7.89576 
5.11345e-05      18.0245     -15.8406 
9.89434e-05      5.86437     -7.05231 
0.000614616      14.3892     -20.2485 
8.11065e-05      12.6520      7.63055 
0.000391135      13.5119      17.3085 
0.000255819      10.5983     -4.87139 
0.000952060      11.9761     -28.7479 
0.000405966      13.2866     -3.62475 
-0.00517701      1.16499     -145.491 
0.000266305      1.03228      125.538 
0.000416180      17.9668     -15.8928 
0.000351095      15.3009     -7.20862 
0.000994955      13.4546      17.3845 
4.92203e-05      20.2712     -13.8717 
0.000186905      17.7004     0.388440 
4.87922e-05      15.2873     -12.2361 
-0.00190597      10.9498     -19.5271 
0.000261565      5.34135      1.28733 
4.82225e-05      2.52927      22.3062 
0.000640940      19.5409     -16.0421 
0.000376050      9.87087     -4.53226 
0.000932822      1.77279      66.0375 
0.000397741      6.84763     -8.05910 
0.000137559      19.6017     -13.9937 
0.000127674      12.9139     -6.13441 
9.21820e-05      7.75139     -3.10603 
0.000267394      12.7189     -13.6429 
0.000133080      4.10814     -6.70984 
0.000273742      11.7038      1.46880 
0.000134051      13.3465     -3.60847 
0.000123352      2.47386      22.8337 
0.000525360     0.789177      81.2538 
8.90561e-05      17.4299     -3.35488 
0.000902221      11.1389     -17.5565 
0.000166544      15.2414     -7.23692 
8.64165e-05      17.2954     -7.17432 
8.32761e-05      9.46879      5.81897 
0.000382676      1.74103     -1.97493 
-0.000385838      21.8868     -11.0635 
4.40143e-05      13.6427     -6.31236 
0.000276395      13.6771     -23.5286 
-0.000322669      20.6079     -26.2666 
0.000573667      9.12020    -0.376940 
8.47625e-05      19.5435     -14.0362 
0.000198472      16.6779     -6.81821 
0.000220115      10.3451      3.99091 
-0.00170165      8.16088    -0.842524 
0.000234823      17.7604     0.387128 
4.26417e-05      20.3295     -13.8312 
8.40214e-05      13.5898     -3.79725 
0.000845078     0.782304     -147.529 
0.000163740      17.8371     -2.50630 
0.000318082      21.0535     -20.3458 
0.000358111      17.8927     -15.7607 
0.000572500      13.3660     -9.03948 
0.000232432      8.23925     -7.95308 
4.14212e-05      13.7561     -23.6580 
0.000153356      2.98376      15.1541 
7.79433e-05      12.7851      1.61354 
4.07132e-05      13.8334     -3.97938 
0.000749453      1.82877      48.9909 
0.000673972      12.9080     -27.3988 
4.01778e-05      19.4708     -13.9078 
0.000406675      3.53644      14.7436 
7.61277e-05      11.0981      10.2771 
0.000450550      14.0770     -4.15521 
0.000397309      10.5385     -4.89909 
0.000551602      4.11558     -7.53945 
0.000207773      19.4853     -14.0790 
0.000114201      17.4815     -7.29576 
0.000185103      5.47185     -3.77228 
0.000177606      12.6606     -13.7070 
0.000592577      17.7771     -2.51475 
0.000241857      1.36953      28.8108 
0.000178453      24.3065     -19.0164 
3.88467e-05      4.25620     -21.5014 
0.000218405      16.0649     -4.28382 
7.66808e-05      8.46766      2.43665 
0.000942258      17.2154      4.59781 
0.000244212      16.8027      1.02303 
3.83458e-05      3.43680      16.2202 
0.000429958     0.729931     -99.4623 
0.000793099      10.8167     -17.4299 
0.000698746      4.33414     -21.9487 
7.00621e-05      11.7877      9.07876 
0.000235028      15.3001     -12.4557 
7.39274e-05      8.52760      2.41951 
0.000257195      1.06827      128.157 
0.00173682      5.32616     -22.5206 
7.25110e-05      19.4126     -13.9503 
-0.000231906      19.9904     -26.5651 
0.000631776      20.3736     -16.2467 
-0.000879947      24.8015     -21.7242 
0.000170498      8.52528      2.01662 
-0.000785756      20.6617     -26.1930 
0.000633741      14.1368     -4.13759 
0.000309430      10.2593      8.74616 
0.000201078      17.5410     -7.27087 
0.000521464      9.07509      9.89826 
0.000100848      10.0315     -2.74261 
-0.000272841      20.5654     -15.0499 
0.000233693      5.41631     -4.44738 
0.000167599      12.2619      8.72485 
0.000566952     0.840000      90.0000 
3.51639e-05      17.1840     -20.6497 
0.00121887     0.901998      3.81407 
0.000163405      5.02462      11.7125 
0.000531841      8.58524      2.00253 
0.000191488      1.70763     -18.4349 
-0.00143241      2.31603      53.4270 
0.000154899     0.782304      57.5288 
3.47431e-05      12.7251      1.62115 
0.000151659      2.52286     -2.72631 
0.000321422      13.6221     -23.6294 
-0.00141339      20.4339     -14.9748 
3.43899e-05      9.12414      9.46232 
-9.56827e-05      17.7853      5.61443 
0.000250303      17.8204     0.385824 
3.42731e-05      15.8796     -12.8810 
0.000202363      12.2026      8.76758 
0.000848360     0.833547     -149.744 
0.000833332      22.4218     -10.0169 
3.37800e-05      22.3513     -16.0510 
0.000156944      12.6070      1.90915 
0.000431698      9.18333      9.40078 
0.000150967      17.4245     -24.6236 
0.000507320      12.1936     -8.48894 
3.32142e-05      2.96864      14.0362 
0.000522299      13.2267     -3.64119 
-0.000495464      20.7959     -26.1954 
0.000311166      7.93453     -3.46823 
0.000105443      9.92615     -4.15964 
-0.000499101      21.8279     -11.0937 
0.000533047      1.74413      63.4349 
0.000150570      13.6663      16.8438 
-3.20627e-05      8.95951     -16.7360 
0.000586574      8.45510     -13.5432 
0.000440659      16.2644     -17.1649 
0.000244788      19.7305     -16.0651 
0.000196883      24.3633     -18.9704 
0.000197170      19.4271     -14.1221 
0.000814948      15.2141     -15.7902 
0.000297343      15.2340     -7.01306 
5.67182e-05      16.6184     -6.84277 
-0.000274315      8.90207     -16.8472 
3.12503e-05      10.0202     0.343084 
0.000153267      15.9381     -12.8329 
0.000120768      7.57926      4.08562 
3.10833e-05      17.2402     -20.5794 
0.000202465      20.5186     -13.8737 
5.41644e-05      16.1577     -8.97263 
0.000206033      5.47613     -4.39871 
0.000265529      1.31727      30.0686 
8.37363e-05      11.7638      1.46131 
3.06879e-05      2.89620      13.1726 
0.000321643      11.1956     -9.56328 
0.000516091      3.90000      30.5102 
-0.000415595      22.0188     -14.6800 
-0.000759001      20.6233     -15.0066 
0.000182090      3.01496      42.5805 
0.00117780      7.51941      4.11819 
0.000553040      16.2170     -8.93956 
-8.80355e-05      13.8106     -2.24087 
0.000435515      17.6006     -7.24615 
5.87238e-05      10.5917      16.7925 
5.85584e-05      22.1598     -12.1923 
0.000746312      14.4456     -20.1661 
0.000218250      16.6839      1.23641 
0.000347761      10.2852      4.01418 
0.000105447      2.86056      9.65989 
-0.000233132      19.9368     -26.6422 
8.37940e-05      15.2287     -12.2840 
7.40059e-05      5.28034     0.651060 
0.000676693      22.2185     -12.1596 
0.000109062      4.64835      23.5870 
8.17459e-05      12.7115      7.59464 
-0.000252627      13.7506     -2.25064 
0.000286197      1.65082     -19.0935 
0.000184311      10.5342      16.8868 
0.000128160      2.87124      10.8403 
-0.000484738      23.4019     -16.9947 
0.000513175      1.78997      50.4403 
5.36522e-05      16.3449     -9.08197 
0.000156534      12.5470      1.91828 
-0.000309414      8.71674      13.9406 
0.000158992      12.5440      13.8368 
0.000180464      13.1102     -23.7495 
-0.000333519      18.8133     -20.3422 
-0.000323446      14.1962     -27.4315 
0.000224847      13.7237      16.7712 
0.000615084      5.48106     -5.02408 
0.000320185     0.782304     -94.3987 
0.000448181      5.74529      7.19923 
0.000133777      2.30903      24.5672 
7.78293e-05      8.17168     -7.59464 
0.000595057      17.8804     0.384530 
-6.75220e-05      21.9607     -14.7197 
0.000899763      1.71919      60.7512 
0.000142180      13.2381     -8.86462 
2.68151e-05      1.76465      54.6888 
0.000246169      20.5769     -13.8336 
9.58333e-05      20.9973     -20.4027 
0.000442742      9.23298      8.97263 
0.000446678      20.2993     -16.1315 
0.000373894      4.26380     -13.8407 
0.000385436      20.6139     -25.1479 
0.000342892      11.2548     -9.51254 
0.000198177      13.7620     -6.25743 
-0.000385004      8.10089    -0.848764 
-2.58755e-05      14.8026      6.75054 
2.57539e-05      20.4312     -16.1996 
-0.000729800      10.8878      12.7343 
2.56177e-05      17.7172     -2.52327 
0.000209168      4.68000      22.6199 
8.78801e-05      4.05611     -7.65065 
8.47027e-05      17.9091     -15.9454 
7.34643e-05      12.7710      7.55907 
-0.000485449      21.9770     -17.1487 
0.000350809      13.1788     -8.90482 
8.90311e-05      1.68107     -2.04541 
9.61065e-05      15.2415     -12.5043 
0.000466676      17.6600     -2.72631 
0.000506600      16.6239      1.24087 
0.000236526      19.5369     -3.52145 
0.000745423     0.816088     -143.973 
2.46695e-05      5.22586     -12.6002 
0.000329144      10.3800      17.4923 
-0.000784722      10.6815     -13.6460 
0.000256493      12.6023      13.7716 
0.000448465     0.901998      93.8141 
0.000223904      8.70331      1.58017 
6.14313e-05      16.4729     -9.22216 
0.000907333      23.7373     -19.0303 
0.000234377      19.5968     -3.51068 
6.93180e-05      11.1626     -1.23198 
-4.76015e-05      6.64918      10.3973 
2.41467e-05      17.4791     -24.5416 
6.82563e-05      10.8731      10.8139 
2.38306e-05      9.52848      5.78239 
0.000103910      4.95645      6.95296 
0.000413826      4.35693     -22.6806 
0.000103213      2.46293     -2.79270 
-0.000663026      8.22197     -1.25445 
0.000740261     0.885889     -151.699 
4.33141e-05      9.96000      0.00000 
2.34004e-05      12.4715      13.6351 
-0.000440355      10.8123     -13.8049 
2.33410e-05      10.4768      16.9821 
0.000318936      3.92943     -7.01650 
-0.000197079      8.65852      14.0362 
-0.000782719      1.83172     -31.6075 
-0.00126625      8.90854     -10.4774 
0.000110299      12.5298      13.5704 
0.000103085      9.18020    -0.374477 
4.58481e-05      12.8823      7.22432 
-0.000413940      6.79300     -3.54477 
0.000206703      15.2570     -2.70488 
0.000569506      10.4372      17.3933 
-8.93108e-05      6.70820      10.3048 
8.90469e-05      19.9472     -12.1549 
0.000789663      13.7118     -26.2287 
0.000212919      2.28473      23.1986 
0.000356323      15.3459     -6.73601 
4.34167e-05      12.4871      1.92750 
0.000144160      2.91973      9.46232 
2.25998e-05      16.4326     -6.70984 
2.25857e-05      13.3973      17.4612 
8.68531e-05      22.5409     -16.0711 
0.000363092      12.5574     -3.01279 
0.000147988      15.1830     -12.5534 
-8.53665e-05      13.6907     -2.26050 
0.000126046      13.6580     -26.3399 
-2.19632e-05      19.8832     -26.7197 
0.000141100      12.9418      7.19091 
-0.000260656      17.7701      1.93493 
-0.00112449      5.52293     -17.0570 
-2.18117e-05      14.8622      6.72335 
-0.000609393      14.1430     -27.5434 
0.000295764      20.7077     -13.9155 
4.24067e-05      9.90000      0.00000 
-0.000358358      19.0192     -4.52347 
0.000391849      1.26570      31.4296 
-8.17684e-05      19.7490     -26.7207 
0.000522938      20.0058     -12.1188 
0.000360752      13.4253     -8.99925 
-8.26642e-05      6.76724      10.2140 
6.18350e-05      9.47506      6.17992 
0.000480085      8.39678     -13.6391 
7.96859e-05      11.2240     -1.53161 
6.02894e-05      5.34000      0.00000 
-0.000365867      15.2363     -14.3646 
2.10972e-05      17.6131     -24.5570 
-0.000311837      5.34135      14.9729 
4.05265e-05      9.93068     -4.50491 
-2.09842e-05      9.22830      12.7712 
2.09080e-05      24.1735     -18.9746 
0.000526551      4.73544      22.3406 
-0.000359753      20.8497     -26.1226 
0.000415263      3.01257      44.1931 
2.07176e-05      13.1870      18.0228 
-0.000421421      9.44976      12.0948 
-2.05608e-05      8.84466     -16.9598 
5.71422e-05      15.9966     -12.7852 
-0.000438414      23.3445     -17.0378 
0.000784502      1.73066      56.3099 
2.04562e-05      3.79189      4.53777 
0.000254200      12.8305      7.52382 
3.93585e-05      10.8142      10.8735 
0.000222276      8.76329      1.56935 
0.000190010      17.2752      4.58186 
-0.000181343      21.7690     -11.1241 
0.000184724      10.4787     -4.92711 
0.000262552      22.4833     -16.1134 
-9.71840e-05      13.5685     -2.02732 
0.000175171      1.59424     -19.7989 
-7.67224e-05      8.60033      14.1332 
1.99258e-05      11.5988      3.26203 
0.000126966      12.9835     -3.44420 
9.62972e-05      15.1244     -12.6028 
1.97927e-05      13.2442     -23.7780 
-1.98062e-05      8.71240     -16.8126 
8.71429e-05      10.2000      8.79741 
-5.80231e-05      6.82630      10.1247 
1.96567e-05      12.4271      1.93680 
0.000206666      2.74758     -31.6075 
7.59299e-05      7.99442     -3.44222 
0.000337849      7.45957      4.15129 
-0.000145521      12.3164     -26.3154 
0.000126701      9.90018    -0.347243 
-1.94510e-05      21.9197     -17.1950 
7.43031e-05      20.5596     -25.2189 
0.000150161      9.41541      6.21923 
-3.81634e-05      8.65499     -16.9275 
0.000163305      20.1097     -16.1098 
-0.000182743      21.8447     -17.0912 
-1.91743e-05      20.6784     -3.49337 
0.000104222      11.6587      3.24525 
0.000178237      3.85170      4.46716 
-0.000351678      16.5461     -23.9625 
7.03758e-05      9.29225      8.91493 
-0.000141497      8.04627     -17.3540 
-0.000356514      2.34307      50.1944 
3.52039e-05      14.2220    -0.966926 
-9.11849e-05      6.88538      10.0369 
3.57294e-05      12.3671      1.94620 
0.000120052      19.0299     -15.9206 
0.000107314      21.0608     -18.4349 
-0.000193172      21.6553     -14.7678 
-0.000151457      19.6955     -26.7992 
0.000283829      10.0130     -8.61565 
-0.000190668      24.0106     -22.0141 
0.000136000      16.2071     -17.2275 
-5.38255e-05      13.5085     -2.03633 
7.14171e-05      13.5692      17.2331 
0.000222334      15.0659     -12.6526 
0.000249025      15.0697      2.05355 
-0.000115688      18.7571     -20.4059 
0.000250960      16.0892     -8.79490 
-1.81820e-05      17.9828     -6.12908 
0.000299242      20.8024     -25.0868 
-0.000217790      17.7102      1.94149 
-0.000766641      12.4505     -26.3181 
0.000531602      12.3548     -24.0755 
0.000115345      4.41235     -22.3801 
0.000315214      8.96754      10.4077 
-8.64588e-05      8.54215      14.2315 
-8.60401e-05      20.1866     -14.9863 
0.000233561      4.19142     -13.2405 
-9.55397e-05      17.9231     -6.14956 
0.000242679      17.6601     -7.22160 
0.000294651      8.17785     -3.78611 
0.000100844      17.9404     0.383244 
0.000257194      13.8216     -6.23032 
-5.06048e-05      23.1549     -17.0263 
-0.000151716      6.94447      9.95063 
0.000145733      1.11606      126.254 
6.56324e-05      2.40300     -2.86241 
0.000132241      9.06000      0.00000 
-0.000475558      15.2945     -14.3088 
0.000223194      6.82472      6.56270 
-8.04787e-05      13.2649     -1.55516 
-0.000578114      21.7874     -17.1375 
0.000453748      1.02528     -69.4440 
-0.000421606      8.23597     -17.3789 
3.39313e-05      20.3712     -25.2820 
0.000596885      12.5881      13.5064 
0.000221159      5.54635     -5.58724 
0.000109999      13.6265      17.1584 
-0.000110462      15.6138      7.50735 
1.66050e-05      4.89690      7.03794 
4.64503e-05      12.6606      13.7070 
-5.68450e-05      20.7132     -4.81877 
1.64833e-05      9.96018    -0.345151 
0.000250850      20.1673     -16.0625 
0.000113256      13.5776     -26.2254 
-0.000259438      17.7378     -6.01915 
-0.000347830      9.39110      12.1715 
3.25546e-05      20.3170     -25.3542 
-1.63628e-05      13.3866     -1.79793 
0.000110802      5.28000      0.00000 
0.000255956      15.8858     -25.9844 
-0.000277961      10.8293      12.8043 
-0.000372536      23.9550     -22.0679 
0.000249107      8.82184      1.16914 
8.33855e-05      16.5639      1.24536 
-4.72968e-05      18.8658     -27.4615 
-6.34230e-05      8.48401      14.3311 
0.000108911      3.40523     -14.2811 
0.000861775     0.939149     -153.435 
0.000338154      9.90073    -0.694460 
0.000195481      12.8899      7.48890 
-7.08085e-05      20.6749     -3.32740 
0.000197761      16.1675      5.96449 
-0.000226022      7.00357      9.86581 
-0.000481595      19.9972     -14.9536 
0.000188559      5.85730      6.46982 
-0.000377297      20.9036     -26.0502 
7.63163e-05      8.54468     -8.07320 
5.99593e-05      12.3072      1.95568 
9.16604e-05      20.1286     -25.4193 
-0.000596020      8.16198     -1.26367 
-0.000115373      21.7101     -11.1547 
0.000397375      15.0073     -12.7027 
-0.000414866      15.6733      7.47869 
0.000367595      7.45547      3.69139 
-7.47408e-05      8.42589      14.4321 
0.000158964      18.9722     -15.9703 
-7.45504e-05      6.73712     -4.08562 
0.000101628      12.8003     -3.22452 
9.86661e-05      18.8676     -3.09898 
2.94709e-05      19.3108     -14.2090 
-0.000351303      17.6502      1.94809 
-0.000465069      2.38193      49.0856 
6.98152e-05      12.5082     -8.82974 
0.000443770      14.9520      2.29980 
-1.49730e-05      6.42112      1.07082 
-0.000166328      13.3266     -1.80603 
1.48880e-05      16.0007     -4.08562 
-7.08082e-05      12.2626     -26.4397 
-0.000123380      19.6419     -26.8781 
0.000220676      9.95367     -8.66739 
1.47141e-05      4.32167      1.59114 
-0.000217018      12.8832     -18.1818 
-0.000363761      6.36113      1.08092 
-0.000107442      18.9467     -27.5388 
0.000194959      18.6847     -2.94510 
7.06352e-05      19.8862     -25.5600 
0.000385324      6.76512      6.62078 
-0.000228998      22.1062     -19.1726 
8.17870e-05      8.90126      7.74777 
0.000159173      8.60409     -8.01709 
2.80057e-05      15.2000     -2.94147 
-0.000197433      22.5461     -17.1812 
-4.22324e-05      13.5909     -11.4588 
0.000124169      21.8428     -7.41784 
0.000162889      16.1078      5.98666 
0.000150541      2.40674     -4.28915 
5.51664e-05      20.4888     -16.1528 
-6.92060e-05      8.36780      14.5345 
5.50551e-05      19.6979     -25.6284 
2.77193e-05      4.44041     0.774220 
5.35821e-05      9.36250      6.62403 
-2.80275e-05      18.9594     -4.53777 
-0.000409568      7.06269      9.78241 
0.000305639      16.0299     -8.82769 
2.74890e-05      13.6838      17.0843 
-0.000134108      4.01328     -31.5514 
4.00379e-05      12.2472      1.96526 
-9.82786e-05      14.8593      4.16803 
2.68010e-05      3.98898     -6.91123 
-0.000139426      15.4837     -14.3593 
-7.71805e-05      6.79697     -4.04958 
-0.000230344      13.6497     -11.4087 
-2.71153e-05      18.8950     -4.37080 
0.000207062      24.0118     -13.5848 
2.64441e-05      12.8547     -27.5219 
-3.78833e-05      18.5675     -20.4260 
4.01507e-05      20.3569     -16.0846 
0.000181918      1.75237      51.9530 
-0.000109926      16.0720     -19.1790 
7.30535e-05      20.0745     -25.4928 
-8.47665e-05      9.55489      11.5922 
-0.000421165      1.18338      59.5345 
0.000121183      4.38164      1.56935 
-0.000171956      15.7456     -10.5392 
-0.000156633      16.4913     -24.0472 
-0.000251299      18.8351     -4.38471 
-2.62133e-05      8.30973      14.6383 
0.000204095      19.6438     -25.7041 
-0.000180639      20.6813     -14.9635 
0.000131319      5.79769      6.53663 
-9.63420e-05     0.984073     -127.569 
-0.000132675      23.2872     -17.0810 
6.16679e-05      19.4135     -3.36646 
4.90597e-05      10.4189     -4.95545 
3.50861e-05     0.842140      85.9144 
4.94316e-05      19.1618     -15.9947 
0.000285298      7.39559      3.72131 
0.000117271      19.2526     -14.2528 
0.000129408      5.48664     -5.64825 
-0.000118067      21.6513     -11.1854 
9.49775e-05      5.73400     -13.3092 
7.41727e-05      20.5465     -16.1063 
-3.78117e-05      8.25169      14.7436 
0.000191748      16.1017      5.77433 
-9.42856e-05      18.5326      6.31971 
-0.000103131      15.7567     -10.7537 
3.66394e-05      11.7186      3.22865 
4.77287e-05      12.7404     -3.23970 
5.99120e-05      17.6001     -2.73560 
2.49457e-05      8.96071      7.69605 
-0.000210326      4.26127      32.3474 
4.84209e-05      21.0039     -18.4867 
-0.000187043      12.7505     -18.0939 
-5.84255e-05      1.14630      173.991 
-3.56847e-05      16.7349     -23.8999 
2.45898e-05      23.4533     -8.08864 
7.03126e-05      15.1433     -3.17983 
3.62596e-05      11.3216      14.1099 
-5.99444e-05      18.7446     -13.3245 
0.000116423      12.2969     -28.5658 
9.29170e-05      14.5019     -20.0844 
-0.000116213      19.5884     -26.9575 
9.24979e-05      23.6806     -19.0777 
2.40120e-05      10.7402     0.320085 
-0.000138755      23.4351     -12.7197 
2.37202e-05      13.7412      17.0108 
9.48676e-05      20.9365     -25.0963 
-3.61613e-05      8.19368      14.8503 
0.000172311      8.66351     -7.96175 
-0.000149825      20.9575     -25.9782 
2.39476e-05      12.1872      1.97493 
1.21457e-05      20.2598     -20.6355 
-0.000104080      8.23772     -10.4915 
1.20817e-05      4.13304     -13.4310 
4.70260e-05      18.9275     -3.08916 
0.000103258      10.8731     -10.8139 
1.20259e-05      9.02018      7.64501 
-4.59931e-05      18.9999     -27.4552 
-2.27429e-05      8.48295     -17.2815 
0.000136052      15.1376     -12.8244 
5.71892e-05      20.0645     -12.0828 
3.42607e-05      2.69666     -32.2756 
-9.07459e-05      1.88308     -30.6507 
4.50315e-05      9.13912      7.54493 
-2.33107e-05      8.13570      14.9586 
2.29543e-05      9.07965      7.59464 
1.17474e-05      15.1961     -12.7742 
6.76213e-05      20.7361     -16.1276 
2.26707e-05      1.08167      123.690 
1.16735e-05      10.1514      17.8995 
2.31850e-05      4.43554     -23.0968 
4.50319e-05      10.0943      18.0042 
8.96094e-05     0.865332     -146.310 
5.57157e-05      13.8813     -6.20345 
4.44237e-05      23.5806     -8.19195 
5.59155e-05      12.8497     -13.7767 
-2.23941e-05      22.2838     -22.1452 
4.47284e-05      8.88081     0.774220 
-1.14311e-05      8.07775      15.0685 
6.65158e-05      3.95181      30.0686 
3.33513e-05      8.11798     -3.81407 
3.33935e-05      12.0695      2.27923 
-2.23225e-05      15.9191      2.80848 
-3.35411e-05      12.8905      16.4949 
2.25648e-05      1.34833      32.2756 
4.44129e-05      4.30163     -22.9887 
1.13457e-05      13.4845     -8.95937 
-3.32477e-05      18.8030     -13.2824 
-3.34164e-05      8.01983      15.1799 
4.41217e-05      18.6248     -2.95458 
1.11980e-05      19.3536     -3.37689 
6.59397e-05      16.0420      5.79589 
3.29861e-05      17.5374     -2.54916 
-3.28258e-05      7.12183      9.70039 
3.30830e-05      9.90164     -1.04163 
3.28343e-05      20.9470     -18.5387 
4.40147e-05      20.9908     -25.0268 
2.19366e-05      11.3798      14.0362 
2.19412e-05      2.34000      22.6199 
-2.20572e-05      15.5419     -14.3045 
1.11164e-05      1.69812      57.9946 
2.18695e-05      10.3592     -4.98411 
1.10847e-05      12.0576     -28.8608 
1.09737e-05      19.2304     -3.21949 
1.09673e-05      11.7785      3.21221 
1.09780e-05      17.5098      4.32342 
-2.17736e-05      23.5342     -17.0490 
-2.18490e-05      8.10888     -10.2290 
-1.09373e-05      18.5112     -20.4908 
-2.17977e-05      21.0115     -25.9065 
1.09337e-05      13.0160      18.2679 
1.09254e-05      22.3523     -9.89216 
1.08919e-05      17.6134     -19.9164 
1.08857e-05      20.2691     -5.94686 
1.08893e-05      10.1317      8.51399 
-1.08658e-05      7.96193      15.2930 
1.08511e-05      22.6152     -16.1751 
-1.08431e-05      17.5902      1.95473 
1.08296e-05      19.3514     -16.0186 
1.08233e-05      19.1704     -3.22957 
1.07876e-05      7.39194      3.25722 
! Tentative model.
! Flux (Jy) Radius (mas)  Theta (deg)  Major FWHM (mas)  Axial ratio   Phi (deg) T \
! Freq (Hz)     SpecIndex
-1.07426e-05      17.7378     -6.01915 
1.07508e-05      20.2691     -5.94686 
1.07545e-05      9.90164     -1.04163 
1.07636e-05     0.780000      67.3801 
-1.07518e-05      1.18338      59.5345 
1.07456e-05      1.02528     -69.4440 
-1.07407e-05      8.16198     -1.26367 
1.07536e-05      1.69812      57.9946 
-1.07558e-05      2.38193      49.0856 
-1.07454e-05      18.9999     -27.4552 
1.07453e-05      5.10882     -12.8937 
1.07562e-05      9.95367     -8.66739 
-1.07536e-05      10.6815     -13.6460 
1.07407e-05      10.8731     -10.8139 
1.07485e-05      15.1376     -12.8244 
-1.07446e-05      8.10888     -10.2290 
1.07460e-05      8.66351     -7.96175 
