! Center RA: 22 02 43.29137,  Dec: +42 16 39.97987 (2000.0)
! Tentative model.
! Flux (Jy) Radius (mas)  Theta (deg)  Major FWHM (mas)  Axial ratio   Phi (deg) T \
! Freq (Hz)     SpecIndex
  0.841956      0.00000      0.00000 
 0.0553904    0.0800000      0.00000 
0.00434872     0.160000      180.000 
 0.0122092     0.240000      180.000 
 0.0224799     0.160000      0.00000 
 0.0498276     0.329848     -165.964 
 0.0281287      1.77629     -172.235 
 0.0493341     0.252982      18.4349 
 0.0143999     0.320000      180.000 
 0.0149585      1.85559     -172.569 
 0.0247819     0.240000      0.00000 
0.00273967      2.02544     -170.910 
 0.0100897      2.10447     -171.254 
 0.0118463      1.69706     -171.870 
 0.0466576     0.400000      180.000 
 0.0206825      2.18358     -171.573 
 0.0254329      1.61790     -171.469 
0.00971317      2.25282     -173.884 
 0.0227274     0.407922     -168.690 
0.00633243      2.26274     -171.870 
 0.0243330     0.329848      14.0362 
 0.0433374     0.320000      0.00000 
0.00425394      1.63169     -168.690 
0.00776706      1.53883     -171.027 
0.00139813      2.19672     -169.509 
0.00272243      2.33238     -174.094 
 0.0103597      2.13467     -167.005 
0.00256426      2.24571     -175.914 
0.00358091      2.32551     -176.055 
0.00331534      1.52840     -173.991 
0.00113780      2.21269     -167.471 
0.00218461      2.57123     -174.644 
0.00601869      1.64924     -165.964 
0.00795510      2.16148     -177.879 
0.00108133      2.57992     -172.875 
0.00555027      2.65932     -173.089 
0.00295717      1.52210     -176.987 
0.00930023      2.15407     -164.932 
0.000925645      2.24143     -177.955 
 0.0153050      2.23141     -165.466 
0.00729428      1.44222     -176.820 
0.000882182      2.65089     -174.806 
0.00325574      1.74723     -164.055 
0.00542103      2.16000      180.000 
0.00297952      2.73876     -173.290 
0.000777498      2.56125     -178.210 
 0.0113606      1.67045     -163.301 
0.00282062      2.64121     -178.264 
0.00963416      2.08000      180.000 
0.00202246      1.52000      180.000 
0.00525191      2.74925     -171.634 
0.00410854      2.64000      180.000 
0.00593029      1.44000      180.000 
0.00725346      2.72000      180.000 
0.00147317     0.480000      180.000 
0.00361156      2.76203     -169.992 
0.00413252      1.36000      180.000 
0.00292087     0.357771     -153.435 
0.00381860      2.00000      180.000 
0.000453896      1.28250     -176.424 
 0.0109507     0.486621      170.538 
0.00218551      1.22376     -168.690 
0.00561807      1.59399     -162.474 
0.00511224      2.84084     -170.272 
0.00359868     0.339411     -135.000 
0.00359435      2.80000      180.000 
0.00177404      2.72118      178.315 
0.00183198      1.44222      176.820 
0.00144055      1.24193     -165.069 
0.00116456      3.36381     -177.274 
0.00223455      2.85545     -168.690 
0.00124384      2.24143      177.955 
0.00460381      3.49903     -169.461 
0.00106273      3.36095     -178.636 
0.000553055      4.16692     -176.698 
0.00317860      1.36235      176.634 
0.00371040     0.288444     -123.690 
0.00559269      4.24679     -176.760 
0.00333105      1.16482     -164.055 
0.00283632      4.37959     -170.538 
0.00380799      3.44093     -178.668 
0.000242003      2.79428     -166.759 
0.000921228      1.92000      180.000 
0.00147920      2.81368     -165.174 
0.00105711      2.16148      177.879 
0.000622919      2.88111     -178.409 
0.000397914      2.32551      176.055 
0.00412190      5.14245     -174.644 
0.00209473      3.51454     -168.179 
0.00110304      1.69517     -160.710 
0.00248589      4.30070     -170.362 
0.00329335      2.75855     -163.142 
0.00110131      3.44372     -177.337 
0.000717220      4.48642      176.934 
0.00191279      2.80114      178.363 
0.000513737      2.88444     -176.820 
0.00194839      1.14543     -167.905 
0.00135333      1.76182      177.397 
0.00278553      1.28250      176.424 
0.00152481      6.09314     -176.236 
0.000506387      4.56631      176.987 
0.000493277      2.08154      177.797 
0.00106207      5.44000      180.000 
0.00156492      2.41197      174.289 
0.00224175      6.01332     -176.186 
0.00114030      4.97353     -168.871 
0.00460325      1.61988     -159.775 
0.00154347      5.81529     -172.093 
0.000821252      4.72610     -177.089 
0.00112992      6.01917     -175.426 
0.000156819      4.64620      177.039 
0.000682768      2.82843     -171.870 
0.000153623      4.72271      178.059 
0.00166294      4.81065     -176.186 
0.000150201      4.40654      176.878 
0.000554837      4.80267      178.091 
0.00234176      4.79266     -165.500 
0.00314434     0.357771     -116.565 
0.000542248      4.32666      176.820 
0.000388286      4.72610      177.089 
0.000917200      1.84174      177.510 
0.00176533      2.81823     -173.480 
0.00108065      5.52000      180.000 
0.000881269      4.07686     -164.055 
0.000954004      5.44059      179.157 
0.000996141      5.28787     -169.540 
0.00127265      4.24679      176.760 
0.000119754      4.88262      178.122 
0.00120996      5.20922     -169.380 
0.00163172      5.82683     -171.314 
0.00106018      4.80600      177.138 
0.000833933      2.81027     -175.101 
0.000196166      3.68348      177.510 
0.000721859      3.52363     -177.397 
9.96520e-05      2.80457     -176.730 
0.00102741      6.67077     -174.495 
0.00250523     0.505964      161.565 
0.000278583      3.52091     -178.698 
0.000570884      1.28996      172.875 
0.000178465      4.09253      175.515 
0.000474953      4.88590      177.184 
0.00174650      4.09956     -162.979 
0.00122890      3.60355      177.455 
0.000747345      5.52058      179.170 
0.00104308      4.12989      171.085 
0.000702860      2.42124      172.405 
0.000710386      4.99151      173.558 
0.000233214      6.74329     -175.236 
0.00102694      7.12045     -179.356 
0.000943474      2.83521     -163.610 
0.00120874      3.57771     -169.695 
0.00173620      1.22376      168.690 
7.94176e-05      5.38145      174.883 
0.000478100      3.14554      172.694 
0.000462772      4.96258      178.152 
0.00105787      5.46875      174.123 
0.00171669      6.40000      180.000 
0.000796304      4.80600     -177.138 
0.00162492      5.47284     -164.745 
0.000932730      6.73712      175.914 
0.00131487      5.97059     -162.051 
0.000634429      4.89506     -168.690 
0.00118833      1.00240     -28.6105 
0.000782881      5.65685      171.870 
0.000497203      6.26099     -169.695 
0.000375333      8.33115      168.366 
0.000198538      7.12000      180.000 
0.000126893      6.75041     -174.560 
-0.000860114     0.800000      0.00000 
0.000941445     0.850412      41.1859 
0.00143893      7.56624      160.224 
0.000179904      6.82302      175.292 
6.01800e-05      7.20178      178.727 
0.000928194      6.67892     -173.811 
0.000231332      2.72118     -178.315 
0.000114233      5.04254      178.182 
0.000304232      4.01995     -174.289 
0.000217293      4.81065      176.186 
0.000109915      5.36060      179.145 
0.000653610      5.90593     -171.431 
0.000394616      3.94036     -174.174 
0.000634952      2.32000      180.000 
0.000365395      4.61649     -171.027 
0.000456950      4.90355      174.382 
0.000101577      6.18230     -169.563 
0.000278699      1.68190      177.274 
0.000850926      4.40291      177.917 
0.000552157      6.19729     -168.835 
0.000786839      1.60200      177.138 
9.62661e-05      6.81692      175.962 
0.000178517      1.21062     -172.405 
0.000158181      5.45234     -165.556 
0.000965707      7.28396      178.112 
8.81327e-05      2.32138      178.025 
0.000334555      8.15843      168.690 
0.000328398      2.97725      173.830 
0.000437278      6.13241      172.504 
0.000164924      6.90970      174.685 
0.000736286      8.23689      168.799 
0.00112557      2.78280     -161.565 
0.000732740      4.91203      173.454 
0.000751615      9.93161      177.230 
0.000373469      6.13501     -167.957 
0.000666403      6.99714      174.094 
0.000188327      7.09163      168.944 
0.000645052      3.06620      172.504 
0.000294878      6.01917      175.426 
0.000414216     0.329848     -104.036 
0.000599264      7.10740      168.311 
0.000224119      4.53749     -170.870 
0.00103530      1.16482      164.055 
0.000430488      8.97178      171.798 
0.000928981      9.94481      171.674 
0.000665979      4.11825      172.185 
6.90427e-05      2.33238      174.094 
0.000728875      6.63759     -164.624 
0.000507511      9.32952      174.094 
0.000540414      6.55073     -171.573 
0.000156674      4.73624     -164.320 
6.63189e-05      6.21328     -168.111 
0.000235980      2.34196      172.147 
0.000587457      7.92040     -179.421 
0.000474372     0.357771     -26.5651 
0.000168721      4.68188     -160.017 
6.14872e-05      6.33972     -169.824 
0.000173877      9.84813      177.672 
0.000170030      4.75714     -160.346 
0.000284922      5.66872      171.069 
5.95905e-05      8.98354      171.293 
0.000310109      3.31494     -160.253 
0.000849114      7.09163     -168.944 
0.000107649      5.30298     -168.690 
0.000420442     0.288444      33.6901 
0.000394213     0.932952     -30.9638 
0.000262768      5.46114      174.958 
5.55600e-05     0.288444      56.3099 
0.000448278      8.65813      176.292 
0.000286903      7.84041     -171.787 
5.43060e-05      3.71117     -172.569 
0.000215702      9.21251      177.013 
0.000104087      8.30537      172.807 
0.000651487     0.357771      63.4349 
0.00104928      1.20266     -93.8141 
0.000508721      10.1980      175.050 
0.000135165      4.96065      179.076 
0.000364800      8.81308      164.197 
0.000880122      7.85224     -171.209 
0.000641262      9.92806      177.691 
0.000282303      2.43310      170.538 
0.000160554      6.22254      171.870 
0.000134417      8.65332      176.820 
0.000405950      8.25281      168.254 
0.000350619      6.01332      176.186 
0.000470613      8.21628      173.290 
0.000180306      4.78464     -159.444 
4.71464e-05      8.80145      178.958 
0.000257811      7.28703      177.483 
0.000231844      5.38145     -168.857 
0.000812002      8.32000      157.380 
0.000405053      6.12301      162.512 
0.000375621      6.46467      167.856 
0.000401950      10.4396      166.709 
0.000128367      8.80036      179.479 
0.000486944      11.5644      165.579 
0.000493246      7.47476     -174.472 
0.000160040      9.84520      178.137 
0.000208769      3.26827     -158.459 
0.000106734      4.81664     -168.503 
0.000329712      11.2106      162.987 
0.000848181      5.18768     -160.168 
0.000433603      9.03575      159.800 
4.00194e-05      6.56049     -164.438 
0.000248181      4.70982     -159.102 
0.000303718      4.92179      172.528 
0.000204310      8.80000      180.000 
0.000134270      2.32138     -178.025 
3.85277e-05      7.04045     -179.349 
3.83774e-05     0.644981      97.1250 
0.000241195      6.24000     -157.380 
0.000263977      9.21703      176.517 
0.000892990      6.36993      154.722 
0.000456031      10.8189      176.609 
7.07460e-05      8.35110     -175.054 
0.000142176     0.724431      96.3402 
0.000675187      11.7820      176.496 
0.000683119     0.329848     -14.0362 
0.000285673      6.58240     -163.768 
0.000137842      8.43801     -174.560 
0.000336780      13.5278      164.567 
0.000197166      2.44753      168.690 
7.00530e-05      9.76295      178.591 
0.000119407      3.84666      163.072 
0.000776997      6.14752      161.801 
0.000273994      5.51072      166.569 
6.07456e-05      6.91757      174.026 
9.53659e-05      6.65925     -163.960 
0.000185737      2.25282     -163.496 
0.000115879      6.80000      171.203 
0.000758041      6.80706     -156.448 
0.000428974      3.87071      161.940 
3.29616e-05     0.803990      95.7106 
0.000138322      9.06263      171.369 
0.000410897      8.32961     -177.248 
9.35836e-05     0.800000      90.0000 
0.000591618      2.56125      165.530 
0.000269929      8.52554     -174.075 
0.000518549     0.880000      90.0000 
0.000219573      9.76131      179.061 
0.000827093      14.4020      156.425 
5.66555e-05      3.15671      171.254 
0.000685273      9.32952     -174.094 
5.44416e-05     0.407922      78.6901 
0.000141177      4.52124      166.701 
0.000277851      1.54506     -158.749 
8.00408e-05      3.52000      180.000 
2.90179e-05      6.68802     -173.130 
0.000226282      6.27120     -156.705 
7.11362e-05      9.93547      165.069 
0.000137084     0.565685      98.1301 
0.000254573      19.1392      156.864 
0.000326302      6.31341      171.254 
0.000293775      9.71465      161.267 
7.72670e-05      9.93161     -177.230 
0.000357372     0.850412      48.8141 
0.000253038      11.4232      173.970 
0.000105204      10.4215      167.137 
0.000158733      5.51072     -166.569 
0.000158837      11.6419      165.677 
0.000317168      10.3435      167.039 
2.62083e-05     0.536656      153.435 
0.000164136      9.91516      165.515 
0.000491607      13.5840      164.982 
0.000847577      5.59142      146.083 
0.000584421      19.1079      157.085 
2.46638e-05      6.61876     -172.360 
6.80410e-05      11.4470      177.997 
0.000113702      7.37086      176.889 
0.000467426      7.58483      153.705 
9.77777e-05      3.34281     -158.962 
0.000272191      9.89319      149.910 
0.000133033      7.71699     -162.504 
0.000487484      9.91290     -173.047 
0.000243685      11.1272      153.988 
6.27509e-05      6.78822      171.870 
0.000360081      12.1760      163.589 
0.000382200      2.14663      153.435 
0.000220687      11.1142      159.347 
0.000192556      21.3688      168.774 
0.000886242      17.5754      157.521 
4.18271e-05      19.2128      156.958 
0.000140110      26.8415      161.403 
0.000274394      25.6050      160.659 
0.000278455      8.88036     -169.095 
7.68509e-05      10.0115     -177.252 
9.02997e-05      8.80036     -179.479 
-0.000505375     0.724431      6.34019 
0.000157757      9.62729      154.926 
0.000186543     0.480000      90.0000 
0.000114388      8.24621      157.166 
0.000182396      21.6818      162.167 
0.000211377      15.2681      174.588 
-0.00176475     0.720000      0.00000 
0.000332433      7.76989     -163.244 
0.000268515      26.8671      161.241 
0.000216433      11.9211      179.231 
-0.000241308      1.25220      26.5651 
1.97949e-05      15.3477      174.616 
8.92228e-05      5.52985      165.763 
0.000409706      12.8638      174.289 
5.20831e-05      4.88590     -177.184 
0.000276174     0.960000      90.0000 
0.000174883      7.93131     -171.298 
0.000311864      24.4911      168.507 
8.75516e-05      6.05680     -167.800 
0.000143971      19.7731      165.233 
0.000359387      21.2904      168.732 
0.000254275      18.5824      163.750 
3.60938e-05      9.40910      174.144 
0.000113143      15.6508      170.586 
0.000102103      21.7064      161.966 
6.43866e-05      10.7263      157.643 
0.000126823      9.76033      179.530 
0.000168437      7.60631     -165.379 
0.000231867      17.8199      154.470 
0.000150564      6.85671      172.626 
0.000274949      9.82405      149.676 
9.79320e-05      22.5231      157.443 
0.000248868      8.21550      157.681 
9.58633e-05      4.44342      166.464 
3.31556e-05      7.74142     -161.940 
-0.000930430      1.22115      31.6075 
9.76408e-05      7.92000      180.000 
0.000131826      18.0896      156.269 
0.000146214      11.1991      154.167 
-0.00189241     0.683520     -159.444 
0.000181724      10.0115      177.252 
3.20705e-05      26.9772      160.060 
0.000479698      17.7953      146.739 
6.05216e-05      10.0914     -177.274 
4.43929e-05      8.53417     -173.541 
0.000178690      15.5332     -177.639 
4.47054e-05      3.56427     -170.961 
0.000128300      18.8393      159.102 
1.62123e-05      5.49269     -167.381 
0.000369515      22.4925      157.631 
0.000332691      1.28996     -97.1250 
7.52129e-05      19.7529      165.457 
8.96428e-05      27.0797      159.959 
1.59171e-05      8.34841      161.565 
8.04582e-05      7.84653      163.413 
5.79655e-05      10.7570      157.249 
0.000102712      18.0227      171.834 
0.000319262      22.3607      153.435 
-0.000126236      15.8507     -171.584 
1.54231e-05      4.22185     -170.181 
0.000303693      1.08812     -162.897 
1.52934e-05      5.91838     -170.665 
2.99776e-05      11.6975     -176.864 
0.000110994      21.7825      162.031 
9.32201e-05      24.4106      159.070 
0.000428793      19.1414      149.899 
6.74933e-05      5.99627     -166.891 
0.000153833      27.0524      160.118 
0.000227221      21.8094      165.556 
5.48164e-05     0.407922     -101.310 
0.000170615      25.5786      160.828 
0.000107509      20.5170      157.535 
0.000140370      29.8255      166.821 
0.000265674      18.4063      178.506 
0.000464081      11.4151     -174.369 
8.44871e-05      15.7971      173.019 
2.73252e-05      24.1490      167.759 
8.38524e-05      9.55489      154.722 
2.78357e-05      6.38649      167.705 
0.000107245      2.33238     -157.834 
-0.000387587      19.3681      178.343 
4.29071e-05      11.7393      165.396 
-0.000121378      31.5180      164.694 
7.22892e-05      6.26355      155.072 
0.000101793      18.4862      178.512 
8.85805e-05      8.95893     -169.192 
1.37126e-05      5.47576     -168.198 
5.86926e-05      11.4151      174.369 
0.000199906      18.7263      166.914 
2.66259e-05      4.77326     -166.430 
0.000237941      18.1019      171.870 
-0.000729194    0.0800000      180.000 
0.000119765      23.3342      159.950 
0.000103049      1.28996     -7.12502 
0.000240766      15.4533     -177.626 
7.70555e-05      10.7391      176.583 
0.000101156      6.48198      167.164 
0.000525855      1.04000     -157.380 
1.28165e-05      24.3443      170.352 
1.28027e-05      11.7733     -177.274 
-0.000323154      27.5665      176.673 
0.000226051      19.7600      157.380 
8.11352e-05      6.33618      155.376 
0.000193996      18.4722      155.433 
0.000161888      19.6958      165.174 
0.000112385      10.8308      157.413 
4.52427e-05      8.27256      161.390 
2.46086e-05      7.66415     -166.109 
0.000236281      4.71525     -165.256 
4.58497e-05      21.7313      161.765 
9.13943e-05      24.4367      170.198 
1.22337e-05      4.88262     -178.122 
0.000147128      11.8424     -178.839 
6.61086e-05      21.6574      162.368 
6.34131e-05      10.0157     -176.795 
8.28564e-05      24.1184      166.379 
1.21381e-05      29.5025      167.471 
0.000295799      1.28250     -3.57633 
-0.000198839      24.7884      175.743 
-0.000542276      7.38474      157.046 
0.000171561      25.3732      173.301 
-5.48385e-05      23.9059      152.063 
4.06739e-05      8.61366     -173.601 
0.000348519      18.9642     -178.791 
0.000197906      18.7934      158.787 
0.000208516      15.3652      178.508 
0.000192217      7.86974      162.854 
0.000224676      29.4853      167.623 
5.47224e-05      5.91838     -166.715 
6.15584e-05      29.2454      168.321 
0.000210931      7.58651     -165.964 
2.26713e-05      15.1884      174.560 
5.49020e-05      24.1661      167.574 
0.000141615      26.4155      173.392 
3.33392e-05      8.20731      173.845 
0.000143376      17.3091      147.265 
2.23988e-05      23.6774      169.487 
5.12178e-05      3.62215     -173.660 
3.25040e-05      15.2783      154.240 
-0.000299470      25.1381      167.689 
5.21033e-05      9.14173      171.444 
0.000127252      9.05273     -168.789 
1.13593e-05      9.68000      180.000 
2.18307e-05      11.7698     -177.663 
0.000205402      29.3400      168.200 
8.40597e-05      1.11140      120.256 
2.19653e-05      18.9147      173.687 
3.80337e-05      10.1041      169.046 
-8.46470e-05      31.4408      164.655 
0.000253160      7.51319      153.435 
0.000204976      10.6138      170.893 
3.11618e-05      14.1331      154.160 
8.54604e-05      5.21536     -159.341 
0.000103364      8.69391      153.199 
8.30003e-05      9.68033     -179.526 
6.50907e-05      10.5930      152.080 
4.46943e-05      1.21062     -97.5946 
0.000135726      29.1434      165.697 
2.08245e-05     0.430813     -21.8014 
0.000216253      19.2281      176.900 
2.87442e-05      4.96000      180.000 
1.06178e-05      7.79333     -162.681 
8.27466e-05      9.44847      154.954 
2.88399e-05      9.20869      177.510 
-0.000105057      27.5661      168.788 
0.000117124      20.6439      153.038 
1.04312e-05      15.1088      174.531 
1.88215e-05      3.37236     -157.694 
8.08652e-05      14.3702      156.718 
-0.000114552      14.6647     -170.897 
3.94740e-05      26.0584      161.009 
1.03802e-05      1.04000     -22.6199 
1.98579e-05      1.07629      131.987 
-0.000152145      17.5143     -172.388 
5.18304e-05      23.7561      169.523 
-0.000241389      25.1513      153.353 
8.18544e-05      15.0291      174.502 
1.01712e-05      14.8259      158.141 
8.76597e-05      21.7565      161.565 
0.000428923     0.407922      168.690 
1.00946e-05      18.8352      173.660 
2.81057e-05      3.52817     -176.100 
1.88705e-05      10.1196      168.601 
2.74225e-05      7.46748     -175.083 
-6.16978e-05      22.7234      150.005 
0.000109389      5.93727     -165.964 
1.90607e-05      15.0649      154.524 
-0.000185032      17.1448      158.943 
9.68662e-06      7.92040      179.421 
6.03726e-05      11.7668     -178.052 
0.000270052      6.23025      155.739 
-0.000132277      4.81664      138.366 
-0.000441861     0.644981     -150.255 
-0.000120905      20.5581      171.271 
9.57029e-06      19.2243      174.028 
2.69544e-05      9.25860     -173.550 
1.76469e-05      18.1950      156.140 
-0.000218761      5.26361      136.848 
0.000233320      1.04307      122.471 
7.55403e-05      8.55102     -169.216 
5.96258e-05      23.2661      155.197 
3.31797e-05      18.5326      169.806 
-0.00238112     0.644981      7.12502 
-8.04021e-05      16.8953      177.558 
-0.000311513      26.5477      158.615 
-0.000333063     0.715542     -116.565 
-2.35272e-05      15.9298     -171.626 
-0.000475366      1.71767      152.241 
1.80065e-05      19.2964      164.120 
3.57372e-05      12.0216      176.566 
1.83480e-05      14.9495      174.472 
-0.000391095      2.89993      155.556 
3.39500e-05      7.37564      176.269 
5.92661e-05      26.1601      160.900 
5.52425e-05      11.4947      174.408 
8.34814e-05      17.8937      159.864 
1.79433e-05      11.1427      158.962 
6.68613e-05      24.3969      168.653 
1.74003e-05      28.5368      161.870 
3.47600e-05      21.7120      165.708 
0.000127316      22.2892      153.343 
1.74820e-05      9.15397      170.949 
3.54138e-05      24.1760      163.664 
0.000242438      1.20266     -3.81407 
0.000101242      20.6077      153.236 
5.05276e-05      18.5056      163.680 
0.000141951      9.63328     -168.503 
0.000114133      6.04675      162.284 
-8.54998e-05      10.7786      168.440 
4.24250e-05      8.60511     -174.130 
0.000142207      17.3524      147.043 
1.76224e-05      26.6923      160.750 
-7.04925e-05      26.8805      163.399 
3.30705e-05      17.8921      154.581 
1.75829e-05      12.1989      163.229 
0.000398463      2.07538      152.447 
0.000137783      25.4527      173.322 
-0.000198629      24.7086      175.729 
4.96543e-05      30.4821      166.183 
8.80286e-06      11.9224     -178.847 
2.38102e-05      15.7177      172.983 
0.000106563      7.96312      157.557 
0.000153988      27.4587      172.130 
3.41839e-05      19.9097      168.645 
0.000345691      1.06733     -167.005 
-4.45840e-05      26.9801      163.284 
0.000138437      13.4638      176.594 
9.04281e-05      3.53452     -174.806 
9.90225e-05      28.7810      163.530 
4.11881e-05      15.3733     -177.614 
0.000253451      12.1223      163.120 
0.000181390      24.1536      163.846 
0.000165046      22.1883      171.081 
0.000147929      26.3639      160.685 
7.57462e-05      25.8253      165.835 
7.37971e-05      21.0134      166.122 
0.000128113      10.0080      177.709 
-0.000358436      16.8154      177.546 
6.76703e-05      26.7943      160.645 
3.96109e-05      1.02450      128.660 
0.000114352      3.74721      163.887 
-0.000185825      12.5424      156.705 
0.000115328      12.0171      176.947 
2.34239e-05      14.4754      156.552 
2.38975e-05      20.2894      154.546 
-8.73834e-05      27.5985      175.678 
2.31689e-05      6.08210     -178.493 
8.09724e-06      11.1717      158.580 
0.000140651      16.7355     -177.534 
8.08480e-06      8.73796      176.326 
2.29287e-05      4.84248      172.405 
-0.000260141      10.7950      168.024 
0.000100445      10.1679      169.574 
0.000105425      1.00240     -151.390 
1.51705e-05      18.3305      151.310 
1.56507e-05      16.8373     -176.186 
-5.04573e-05      27.0567      163.333 
5.92041e-05      9.60133     -179.045 
0.000129310      11.1269      158.046 
5.45202e-05      9.23298      171.027 
8.83402e-05      21.7319      165.503 
4.48720e-05      27.6463      158.260 
6.85383e-05      5.28545      140.528 
-0.000139034      2.89883     -140.599 
-9.96188e-05      31.5534      165.012 
-0.000267339      1.24964      39.8056 
-0.000158918      12.7912      164.399 
0.000106942      15.2970     -177.302 
7.70172e-06      19.7164      164.949 
3.95203e-05      14.7517      158.025 
0.000111865      24.8738      162.789 
0.000239406      19.1441      177.126 
7.66157e-06      12.9516      173.972 
4.30707e-05      19.4801      151.014 
1.49303e-05      8.66367      175.764 
7.73175e-05      20.2519      154.245 
9.12074e-05      8.68470     -174.184 
0.000126316      18.6049      163.513 
-7.32626e-05      27.6783      175.690 
3.56592e-05      14.9240      172.608 
0.000123336      19.6391      164.888 
-0.000141383      20.5461      171.491 
2.82959e-05      13.8055     -175.347 
7.73574e-05      4.05561      157.989 
5.60358e-05      30.5598      166.218 
5.23966e-05      5.24412     -158.523 
-0.000161936      1.43108     -26.5651 
0.000130816      1.01193     -161.565 
3.38209e-05      6.30327     -156.038 
7.48484e-05      16.7575     -176.168 
-0.000278790     0.724431     -173.660 
0.000240019      19.4459     -178.586 
-0.000114674      17.7953     -176.392 
7.41149e-06      17.6845      146.813 
7.40923e-06      21.6333      162.570 
0.000151295      31.0962      168.574 
2.11193e-05      20.2172      154.449 
-6.33054e-05      23.0322      168.378 
6.73458e-05      5.57078      144.941 
2.14724e-05      22.9378      154.597 
4.16709e-05      18.3662      155.556 
2.10509e-05      21.3786      157.562 
-0.000159618      17.0683     -173.541 
2.06661e-05      21.6806      161.498 
7.50831e-05      18.1811      171.906 
-2.10424e-05      17.0683      173.541 
0.000130203      1.12000      0.00000 
3.54667e-05      1.58392     -45.0000 
-0.000176865      10.7212      179.145 
7.13501e-06      16.7529      145.703 
-9.29164e-05      17.1163      159.193 
0.000128580      27.5720      158.199 
1.39211e-05      16.3578      151.680 
-9.25813e-05      24.2612      172.992 
-2.58765e-05      22.7927      150.105 
-1.32115e-05      17.8005     -176.135 
3.82018e-05      10.0955     -176.820 
6.97008e-06      20.7515      152.941 
2.66628e-05      21.6481      170.642 
3.15429e-05      21.8972      148.749 
6.90663e-06      3.55077      165.651 
5.51622e-05      16.6869      145.548 
0.000114162      14.4437      156.843 
3.93232e-05      22.8313      154.692 
3.78439e-05      17.7284      146.597 
0.000167501      2.95134      147.171 
1.94116e-05      7.38127      175.649 
1.98729e-05      20.7152      153.138 
0.000143530      27.1309      173.567 
7.91856e-05      9.68132     -179.053 
-1.92022e-05      18.0513     -175.679 
-0.000118246      30.3685      170.141 
2.97516e-05      8.74345      175.802 
2.64623e-05      21.7790      157.769 
1.32349e-05      17.9644      154.690 
3.07205e-05      28.2335      161.154 
-7.90355e-05      10.5530      160.054 
3.68779e-05      5.95718     -165.217 
2.46321e-05      15.6383      172.948 
4.22633e-05      16.3200      151.928 
-5.95478e-05      17.1478      173.571 
8.22643e-05      18.8680      158.875 
8.32409e-05      11.5743      174.447 
8.88153e-05      19.5501      151.128 
1.28529e-05      24.1834      167.389 
-0.000100424      2.20690      133.531 
2.42279e-05      25.5181      154.961 
7.65618e-05      17.2418      147.121 
7.04800e-05      9.75508      149.439 
3.10642e-05      18.4043      178.755 
3.65005e-05      14.9345      172.304 
8.86507e-05      25.7282      165.964 
-3.01537e-05      5.12562      145.814 
8.23266e-05      26.2619      160.792 
0.000110629     0.976524     -145.008 
4.67241e-05      21.4931      150.573 
0.000207655      1.04307      4.39871 
6.49262e-06      18.8861     -178.544 
-7.70292e-05      1.44222      146.310 
2.29022e-05      6.62987     -171.674 
-0.000672314     0.720000      180.000 
-6.42186e-05      22.8224      174.569 
7.63834e-05      30.5789      166.073 
7.57125e-05      18.2575     -177.489 
9.91964e-05      21.7049      157.689 
1.84124e-05      18.3995      155.329 
-0.000103380      12.8683      164.495 
-1.86021e-05      15.8725      156.536 
7.03286e-05      25.4587      174.952 
2.93182e-05      17.1202      179.732 
1.78453e-05      20.3239      154.343 
-8.08754e-05     0.758947     -108.435 
5.71356e-05      22.6186      160.796 
4.54461e-05      29.2209      165.735 
1.71343e-05      18.2603      151.189 
3.45932e-05      6.30175      171.973 
-5.15145e-05      26.4065      172.164 
3.60726e-05      1.21062      172.405 
2.28176e-05      6.16052     -179.256 
-1.22944e-05      19.3660      178.580 
3.99024e-05      21.6352      170.851 
5.74115e-05      16.7630     -175.895 
-2.34791e-05      24.2711      172.805 
2.97470e-05      18.0368      154.799 
1.15312e-05      22.6423      161.245 
6.77007e-05      22.7590      154.606 
5.25617e-05      17.5508      176.603 
3.95026e-05      8.53642     -169.743 
-8.46587e-05      17.1911      159.288 
2.27715e-05      21.7337      162.432 
2.35204e-05      7.54930      152.892 
5.08792e-05      15.1456     -176.669 
-3.38057e-05      20.7817      175.584 
-5.11594e-05      19.4426      179.057 
-2.24752e-05      14.5857     -170.848 
1.70362e-05      7.74721     -163.811 
3.38048e-05      25.7277      174.289 
2.26473e-05      1.18929     -70.3462 
3.36534e-05      29.6183      170.360 
5.60220e-05      11.3915     -169.479 
2.24543e-05      25.2501      174.181 
0.000172698      1.05224     -171.254 
2.26493e-05      18.8043      166.969 
2.78200e-05      14.5118     -176.207 
-3.89929e-05      25.5111      168.972 
2.76095e-05      12.0131      177.328 
2.78512e-05      4.44558     -149.744 
-1.15450e-05      15.8408      156.801 
2.78375e-05      23.8267      166.010 
2.21813e-05      6.69424      165.466 
-0.000153844     0.640000      0.00000 
0.000165400     0.973242      9.46232 
-3.86804e-05      2.81823     -124.592 
-5.77970e-06      20.5394      167.858 
1.13209e-05      19.5730      171.539 
1.67142e-05      3.29848     -140.906 
2.73991e-05      1.07331      116.565 
-3.82983e-05      20.4612      167.811 
-1.68009e-05      15.4651      157.813 
2.72773e-05      7.47818      152.613 
2.17682e-05      18.1092      154.907 
2.15843e-05      17.8663      160.105 
1.61895e-05      10.1754     -176.845 
2.15768e-05      15.1513      170.886 
3.77762e-05      1.13137     -8.13010 
2.15928e-05      17.4710      176.587 
-2.13652e-05      15.6869      160.641 
1.07620e-05      21.9656      148.857 
1.61705e-05      30.4288      163.661 
-1.60961e-05      31.2456      162.261 
-1.61711e-05      31.5328      165.153 
-2.15303e-05      15.4954      157.539 
-1.07274e-05      5.17100      145.081 
5.41416e-06      3.40353     -156.448 
-1.59430e-05      24.7986      173.517 
5.36231e-06      16.6776     -176.149 
1.05790e-05      3.34951     -139.844 
-5.33896e-06      26.9034      163.235 
1.05787e-05      19.8313      168.599 
5.30991e-06      18.8822      167.024 
-5.29803e-06      26.6221      165.379 
5.29950e-06      7.99400      157.027 
-1.05235e-05      5.92756      148.241 
5.28651e-06      25.6431      157.435 
-5.27587e-06      17.4145      172.875 
5.27612e-06      18.2717      171.693 
5.23870e-06      12.0694      162.646 
5.23362e-06      2.58240      163.811 
5.23441e-06      25.8153      174.130 
5.22711e-06      14.5173      156.967 
