! Center RA: 22 03 14.97579,  Dec: +31 45 38.26998 (2000.0)
! Established model.
! Flux (Jy) Radius (mas)  Theta (deg)  Major FWHM (mas)  Axial ratio   Phi (deg) T \
! Freq (Hz)     SpecIndex
  0.356841    0.0500000      0.00000 
 0.0683404     0.111803      26.5651 
 0.0341655     0.364005     -164.055 
  0.139496     0.412311     -165.964 
 0.0884358     0.158114      18.4349 
 0.0968662     0.206155      14.0362 
 0.0255004     0.474342     -161.565 
 0.0871850     0.522015     -163.301 
 0.0210699     0.254951      11.3099 
 0.0245363     0.364005      15.9454 
 0.0191164      0.00000      0.00000 
 0.0442729     0.412311      14.0362 
 0.0676712     0.570088     -164.745 
 0.0444682    0.0500000     -180.000 
 0.0185915     0.460977      12.5288 
 0.0426924     0.100000     -180.000 
 0.0476842     0.522015      16.6992 
 0.0878259     0.680074     -162.897 
 0.0709448     0.570088      15.2551 
 0.0132164     0.150000     -180.000 
 0.0296736     0.304138     -170.538 
 0.0378196     0.150000      0.00000 
 0.0186885     0.743303     -160.346 
 0.0556607     0.680074      17.1027 
 0.0312352     0.790569     -161.565 
 0.0343816     0.200000      0.00000 
 0.0159530     0.353553     -171.870 
0.00708237     0.300000     -180.000 
 0.0351799     0.854400     -159.444 
 0.0167889     0.350000     -180.000 
 0.0122702     0.743303      19.6538 
 0.0215634     0.403113     -172.875 
 0.0405674     0.304138      9.46232 
 0.0509756     0.790569      18.4349 
0.00973184     0.250000      0.00000 
 0.0286463     0.873212     -156.371 
0.00833495     0.206155     -75.9638 
0.00412552     0.400000     -180.000 
0.00379772     0.452769     -173.660 
 0.0158910     0.254951     -78.6901 
0.00362222     0.291548      149.036 
0.00336902     0.502494     -174.289 
0.00927516     0.939415     -154.799 
0.00624534     0.335410      153.435 
0.00586211     0.559017     -169.695 
 0.0190866     0.320156      141.340 
0.00537346     0.961769     -152.103 
 0.0216506     0.807775      21.8014 
0.00717687     0.608276     -170.538 
0.00478170     0.304138     -80.5377 
0.00605020     0.917878     -150.642 
 0.0140002     0.667083     -167.005 
 0.0285444     0.316228     -71.5651 
0.00867891     0.943398     -147.995 
0.00859347     0.715891     -167.905 
-0.00869084      1.41156      22.9321 
0.00727331      2.12191     -145.561 
0.00834952     0.970824     -145.491 
0.00696993     0.657647     -171.254 
-0.0133530      1.38654      25.6410 
0.00634696     0.764853     -168.690 
0.00317806     0.353553      8.13010 
0.00843983      1.05475      5.44033 
0.00518259     0.360555      146.310 
0.00304155     0.850000      28.0725 
0.00799777      2.16333     -146.310 
0.00659547      1.00000     -143.130 
0.00149455      1.99060     -154.722 
0.00142520     0.905538     -173.660 
0.00273310      1.96977     -156.038 
0.00621640     0.832166      32.7352 
0.00130613      1.10000     -180.000 
0.00841429      1.92419     -155.433 
0.00458989      1.97231      30.4655 
0.00546507      2.36485      13.4486 
0.00486217      1.20104      177.614 
0.00224799     0.353553      135.000 
-0.00112428      1.36473      28.4429 
0.00790279      4.60109     -137.643 
-0.00206653      1.42303      18.4349 
0.00459329      2.15058     -144.462 
-0.00578685      1.34629      31.3287 
0.00981069     0.860233      35.5377 
-0.00410460      1.57877      10.9541 
-0.0119798      5.59151     -121.842 
0.00100421      1.03078     -140.906 
0.00264334      2.01556      29.7449 
-0.0112881     0.632456     -108.435 
0.00837682     0.390512      140.194 
0.00412723      1.25399      175.426 
0.000935925      1.07935     -103.392 
0.00999907      5.21177     -118.040 
0.000918251      1.02591     -136.975 
-0.00544726      1.72627     -169.992 
-0.0105626     0.901388      160.560 
0.00220206      2.32863      14.9314 
-0.00317851      1.39284      21.0375 
0.000887796     0.894427     -153.435 
-0.0119641      2.65000     -148.109 
-0.00231982      1.33135      34.2869 
0.00163904      2.39008     -164.219 
0.00492532      1.06066     -135.000 
0.00449729      3.28824     -134.384 
0.00266367      1.01980     -101.310 
0.00157955      2.31625      13.7363 
0.00152929      7.10634     -129.289 
0.00289259      3.32340     -135.000 
0.000799502      1.87883     -154.799 
0.00268928      5.96406     -124.756 
0.000759647      1.05119      2.72631 
0.00466034      1.90394     -156.801 
0.00809301      2.73359     -140.194 
0.00394050      2.20511     -147.031 
0.00324496      3.32415     -133.781 
0.00196381      4.74368     -147.482 
0.00304597      1.99123      28.4956 
0.00131171      6.60379     -147.995 
-0.00336638      8.60523     -128.868 
0.00245675      2.42539     -165.677 
0.00138089     0.874643      30.9638 
-0.00253492      4.80885     -115.233 
0.00363083      3.83471     -157.782 
0.00124059      7.07248     -123.465 
0.00294146     0.850000     -151.928 
-0.00303085      1.47054     -162.181 
-0.00123331      1.37568      19.0935 
0.00148470      3.65034     -143.915 
-0.00728441      3.08585     -139.600 
-0.00405121      5.97516     -135.339 
0.00491519      1.15109      177.510 
0.00398519      5.97704     -124.089 
0.00455604      7.17670     -129.346 
-0.000638672      7.81041     -142.543 
0.00269183      3.62112     -144.554 
-0.00384098     0.650000     -112.620 
0.00326715     0.380789     -66.8014 
-0.00478622      2.88141     -128.660 
0.00432807      4.56755     -138.106 
-0.00159633      1.36565      23.7495 
-0.00215231      7.78010     -142.836 
-0.00463525      7.00589     -114.004 
-0.000584630      1.67705     -169.695 
0.00319830      1.09659     -133.152 
0.00110809      2.26385     -149.470 
0.00278788      7.28577     -140.849 
0.00102592      1.29808     -105.642 
0.00101947      2.28035      15.2551 
-0.00203022      4.83037     -115.769 
-0.00372358      6.77145     -125.685 
-0.00151478      1.43962     -159.677 
-0.00593981      2.59471      25.0836 
0.00250679      1.13137     -135.000 
0.00329658      8.49588     -132.138 
-0.000532143      1.71828     -171.634 
-0.00148015      9.05124     -134.552 
0.00100457      8.32121     -138.166 
-0.00403987     0.854400      159.444 
0.00244388      2.30705     -150.101 
0.000512138     0.827647     -154.983 
-0.00172497      4.99300     -122.735 
0.00256118      4.72890     -146.646 
-0.000501075      1.71172     -173.290 
0.000966072      2.46221     -167.093 
0.00114980      3.78847     -157.496 
-0.00391497      6.08543     -118.460 
-0.00595675      8.63670     -129.126 
0.000935348      3.66231     -122.171 
-0.000479315      5.02021     -123.215 
0.000477806      1.20416      175.236 
-0.000474751      1.66208     -173.089 
-0.000474145      7.36240     -151.172 
0.000473297      1.85809     -156.194 
0.000472644      5.52675     -138.668 
0.00334126      6.46607     -121.724 
-0.00149513      1.42303     -161.565 
-0.000452762      5.00849     -121.945 
0.000958199     0.632456     -161.565 
0.000507682      4.52134     -141.736 
0.000938606      4.71514     -145.804 
0.00173630      4.57193     -138.991 
0.00362791      5.45619     -138.715 
0.00203918      1.13358     -131.424 
0.00399273      1.95000     -157.380 
0.000419708      4.75657     -146.143 
0.00119644      9.11112     -130.772 
0.00290428      5.51044     -143.858 
0.000599489      4.48219     -141.340 
0.00495966      9.08433     -130.088 
-0.00427871      1.45602     -164.055 
0.00119215      6.47476     -137.191 
-0.00447940      1.38924      30.2564 
0.000318968      8.16104     -127.783 
0.000816947      4.45112     -141.843 
0.00125952      8.35464     -137.911 
0.00107396      4.33417     -129.382 
0.00279659      8.19176     -128.059 
0.00143986      1.96787      27.2161 
0.00307245      5.24047     -119.745 
0.000544124      5.99270     -125.149 
0.00202919      8.46242     -131.887 
0.00226534      7.40152     -116.911 
-0.00218731      7.07619     -119.644 
-0.00129265      2.92062     -128.047 
-0.00215399      4.85412     -114.981 
0.00231654      1.99060      25.2777 
0.000720034      8.35853     -138.395 
0.000271838      1.25000     -106.260 
0.000706295      8.23073     -143.896 
0.00141393      2.35053     -150.709 
0.000927287      2.41350     -166.827 
0.000259282      6.64116     -116.372 
0.00113106      8.62149     -142.067 
0.000497870      5.48931     -138.323 
-0.000735103      6.42515     -150.642 
0.000734169     0.901388      33.6901 
-0.000724428      1.61245     -172.875 
0.00132823      3.62008     -122.593 
0.00134960      6.68599     -116.182 
-0.00116838      6.73090     -125.933 
-0.000887857      3.34253     -158.039 
0.000476619      7.53956     -155.304 
0.000243207      3.69087     -144.372 
-0.00111160      7.45151     -125.716 
-0.000904721      7.40625     -151.359 
0.00110397      7.39358     -147.707 
-0.00131129      9.01624     -134.326 
0.00110594      6.44089     -137.517 
0.000236994      1.26491     -108.435 
0.000909637      5.72473     -115.894 
-0.00104324      7.92244     -136.534 
0.000427455      4.82597     -145.981 
-0.000444963      5.58234     -120.700 
0.000821242      7.51881     -155.651 
0.000421964     0.890225      38.1572 
-0.000219059      6.36318     -149.808 
0.000422961      6.10737     -129.685 
0.00205374      5.74674     -116.342 
0.000434532      5.31154     -123.092 
-0.000624080      2.91290     -129.428 
-0.000417365      1.65680     -174.806 
0.000414235      2.30489     -176.269 
0.000417417      7.81425     -150.482 
-0.000809188      4.17642     -148.213 
0.000418530     0.960469     -141.340 
-0.000608251      6.08790     -146.049 
-0.000406551     0.585235     -19.9831 
0.000610200      7.35697     -117.087 
0.00100061      5.35374     -124.729 
-0.000597492      5.55698     -120.256 
0.000203751      5.52178     -144.583 
-0.000396759     0.707107     -8.13010 
-0.000199908      7.47061     -152.063 
0.000392719     0.930054     -143.746 
-0.000390550      6.40020     -126.422 
0.000388324      9.05221     -129.846 
0.000194901      2.69072     -138.013 
0.000192442      4.54533     -140.356 
0.000192449      8.66790     -124.423 
0.000191640      7.14510     -129.036 
-0.000191606      6.85055     -146.310 
