! Center RA: 12 29 06.69973,  Dec: +02 03 08.59828 (2000.0)
! Established model.
! Flux (Jy) Radius (mas)  Theta (deg)  Major FWHM (mas)  Axial ratio   Phi (deg) T \
! Freq (Hz)     SpecIndex
  0.725947    0.0500000      90.0000 
  0.415558      0.00000      0.00000 
  0.395103    0.0707107      45.0000 
  0.178335    0.0707107     -135.000 
  0.173588     0.820061     -127.569 
  0.346630     0.282843      45.0000 
  0.165497     0.360555     -123.690 
  0.311807     0.960469     -128.660 
  0.204520     0.212132     -135.000 
  0.283120     0.353553      45.0000 
  0.835581     0.540833     -123.690 
  0.743234     0.111803     -153.435 
  0.375725      1.03078     -129.094 
  0.635578     0.424264      45.0000 
  0.368084     0.141421     -135.000 
  0.116821      1.07005     -127.405 
  0.258063     0.514782     -119.055 
  0.671886      1.10114     -129.472 
  0.548258     0.494975      45.0000 
  0.120502     0.583095     -120.964 
  0.395745      1.17154     -129.806 
  0.175787     0.531507      41.1859 
 0.0338904     0.610328     -124.992 
 0.0305424    0.0500000     -180.000 
 0.0285450     0.750000     -126.870 
 0.0772029     0.602080      41.6335 
 0.0776824     0.111803      63.4349 
 0.0258516     0.471699     -122.005 
 0.0430071     0.781025     -129.806 
 0.0452424      1.24197     -130.101 
 0.0758555     0.180278      56.3099 
 0.0217091     0.403113     -119.745 
 0.0412765     0.672681      41.9872 
 0.0208674     0.851469     -130.236 
 0.0197132      1.27475     -131.820 
 0.0314581     0.335410     -116.565 
 0.0185060     0.710634      39.2894 
 0.0641828      1.31244     -130.365 
 0.0332599     0.291548     -120.964 
 0.0463429     0.813941     -132.510 
 0.0169364     0.743303      42.2737 
 0.0639663     0.212132      45.0000 
 0.0768569     0.781025      39.8056 
 0.0768088      3.47131     -138.504 
 0.0511078      6.22354     -141.196 
 0.0136396     0.250000     -126.870 
 0.0374681      3.50464     -137.891 
 0.0129131      1.35093     -128.991 
 0.0243271     0.848528     -135.000 
 0.0624187      6.69347     -138.331 
 0.0582959      1.32004     -127.304 
 0.0225295      19.4583     -122.833 
 0.0220409      6.27096     -142.125 
 0.0206392     0.884590     -137.291 
 0.0105587     0.269258     -111.801 
 0.0104333      19.3892     -122.788 
 0.0102377      6.24039     -142.487 
 0.0100480      19.5888     -122.067 
0.00976582      6.07001     -143.036 
0.00973101      19.2510     -122.699 
0.00945670     0.316228     -108.435 
0.00944099      19.6312     -121.990 
0.00942737      6.29385     -141.127 
0.00917782      19.2780     -122.825 
0.00916570      5.87069     -136.380 
 0.0824500     0.813941      42.5104 
0.00900113     0.921954     -139.399 
0.00894523      6.04007     -143.415 
 0.0246152      19.6472     -121.789 
0.00882239      20.5996     -125.117 
0.00864448      19.1014     -122.276 
 0.0294656      3.15159     -138.215 
0.00857974      13.4727     -121.803 
0.00851568     0.364005     -105.945 
0.00854060      6.37201     -141.691 
0.00834458      19.7612     -123.650 
0.00835540      3.64177     -135.556 
 0.0159420      6.00000     -143.130 
0.00817260     0.960469     -141.340 
0.00818772      5.86941     -135.690 
0.00816445      12.9653     -121.115 
0.00808926      6.43506     -135.630 
 0.0154427      1.36015     -126.027 
0.00804147      19.4895     -125.076 
 0.0224888      13.5152     -121.691 
0.00798686      18.9369     -122.053 
 0.0151434      20.6406     -125.038 
 0.0149024      3.99531     -135.507 
 0.0150416      6.77366     -139.490 
 0.0210062     0.412311     -104.036 
0.00765582      12.8967     -121.040 
0.00873030      4.59674     -135.881 
0.00752053      6.44224     -141.618 
0.00747935      18.8345     -124.618 
0.00742505      1.00000     -143.130 
0.00741620      19.3179     -123.279 
 0.0134502      5.83374     -135.347 
0.00722139      12.9226     -121.230 
0.00718854      19.6897     -121.712 
 0.0133322      18.5025     -124.764 
0.00710580      5.41225     -136.872 
0.00705194      18.9104     -121.925 
0.00700611      22.6939     -127.930 
0.00695122      6.39941     -134.683 
 0.0189921      6.01041     -143.797 
 0.0133346      11.8454     -119.595 
0.00687464      19.5183     -125.196 
 0.0128374      20.3510     -126.307 
0.00674493      4.66744     -135.868 
 0.0246215      1.05475     -148.570 
0.00671776      6.48151     -141.892 
0.00671578      12.8539     -121.155 
 0.0129505      19.6209     -121.665 
 0.0298332      3.11448     -137.603 
 0.0128423      13.4679     -122.569 
0.00661159      18.5436     -124.676 
0.00656274      22.7641     -127.952 
0.00655255      18.8680     -122.005 
 0.0430351      14.0982     -121.661 
0.00655312      3.85389     -135.526 
0.00650032      6.80625     -139.170 
0.00647070      20.7102     -125.071 
0.00643039      5.37587     -136.507 
 0.0118584      6.29365     -134.356 
 0.0409930      1.33135     -124.287 
0.00622078      22.7247     -128.030 
 0.0294549      3.08099     -138.289 
0.00614143      18.8945     -122.134 
0.00614602      11.8889     -119.476 
 0.0209728      4.70346     -136.292 
0.00603428      19.1823     -121.245 
 0.0159335      3.92460     -135.516 
0.00599890      12.7339     -120.694 
0.00597578      6.55172     -141.818 
0.00615673      18.7911     -124.155 
0.00592412      22.3652     -128.100 
0.00590068      13.5316     -121.399 
 0.0113394      6.80165     -128.134 
0.00585424      3.60624     -135.000 
 0.0111389     0.403113     -97.1250 
0.00583245      6.88222     -139.715 
0.00580842      22.8737     -127.897 
 0.0103919      19.3730     -123.526 
 0.0289616      11.8207     -119.384 
0.00570249      20.7511     -124.992 
0.00567307      6.86804     -132.049 
 0.0183255      5.30519     -136.528 
 0.0104654      18.5311     -124.891 
 0.0109387      13.4801     -123.042 
0.00565263      19.7323     -121.636 
 0.0260695      1.09772     -149.931 
0.00554716      12.8024     -120.772 
0.00550773      22.4354     -128.121 
0.00550550      18.7073     -123.775 
0.00545107      20.3806     -126.420 
0.00545518      18.9764     -121.093 
 0.0145785      6.05083     -144.077 
 0.0104103      22.9746     -128.017 
0.00530166      6.85000     -140.034 
0.00972704      18.4901     -124.979 
0.00521849      12.4424     -120.687 
0.00521699      19.6373     -121.464 
 0.0130207      5.79828     -135.000 
0.00517259      20.7799     -125.105 
0.00515909      19.2762     -123.360 
 0.0144539      6.81047     -127.543 
0.00512927      22.3960     -128.200 
0.00512933      6.59109     -142.087 
 0.0141198      18.9077     -121.042 
 0.0128626      18.6519     -123.520 
0.00501578      3.53624     -133.854 
0.00501325      13.6004     -121.470 
0.00493816      6.80147     -131.424 
0.00935558      20.4104     -126.533 
0.00492246      12.7516     -120.386 
0.00889100     0.400000     -90.0000 
0.00483144      6.84416     -139.444 
0.00911868      22.1546     -128.034 
0.00481217      13.5074     -123.219 
0.00475007      23.0140     -127.940 
0.00470886      6.36396     -135.000 
0.00469793      18.6387     -123.179 
0.00465692      20.0764     -121.869 
0.00462421      12.7696     -120.079 
0.00458814      6.36003     -143.310 
0.00455722      20.9314     -124.981 
0.00453157      22.5365     -128.243 
0.00449997      13.5349     -123.397 
0.00815710     0.350000     -90.0000 
0.00446808      23.0535     -127.864 
0.00853645      6.70075     -142.275 
0.00439904      6.95270     -139.667 
0.00437908      19.5686     -121.416 
0.00435124      6.58274     -128.524 
0.00434219      12.4854     -120.570 
0.00427365      13.6528     -121.827 
0.00423103      3.53836     -132.709 
0.00420574      6.04649     -124.216 
0.00781945      5.23450     -136.548 
0.00418896      22.7162     -128.207 
0.00811005      18.4779     -125.195 
0.00417432      13.4931     -123.513 
0.00415887      20.1453     -121.915 
0.00947246      6.93289     -133.247 
0.00797433      12.7632     -119.578 
0.00411520      20.9438     -124.790 
0.00408245      11.7772     -119.504 
0.00710975      4.81041     -136.685 
0.00404928      23.0930     -127.788 
 0.0112163      14.1245     -121.833 
0.00405739      18.6661     -123.307 
0.00403339      6.88059     -127.619 
0.00403104      19.3843     -125.658 
0.00774522      5.98101     -144.184 
0.00396699      13.5624     -123.573 
0.00395258      22.1854     -128.135 
0.00394758      20.6510     -122.844 
0.00393665      6.14431     -124.725 
0.00754116      18.9249     -120.834 
0.00392135      14.0064     -123.350 
0.00391311      12.4169     -120.489 
0.00391334      21.7037     -125.814 
0.00386560      4.03113     -136.005 
0.00385302      7.24051     -129.958 
0.00650799      6.92044     -139.982 
0.00382122      23.0842     -127.962 
0.00379662      20.1189     -121.794 
0.00586415      7.00179     -133.843 
0.00378416      11.4858     -119.466 
0.00793464      4.73973     -136.710 
0.00378246      14.6387     -121.736 
0.00377162      18.6243     -123.391 
 0.0215172      8.31219     -136.706 
0.00374298      20.3702     -126.617 
0.00374068      8.41204     -129.936 
0.00372878      19.1249     -122.942 
0.00370809      6.55934     -123.811 
0.00370618      22.5675     -128.343 
0.00987624      3.46771     -132.663 
0.00365246      6.67027     -142.615 
0.00364413      18.4082     -125.158 
0.00364102      6.01851     -123.822 
0.00363679      13.5486     -123.866 
0.00362459      23.0411     -127.417 
 0.0127106      14.6551     -121.467 
0.00358727      8.15138     -131.021 
0.00356561      14.0901     -123.126 
0.00356524      20.6239     -122.727 
0.00977601     0.777817      45.0000 
0.00683101      12.7386     -119.382 
0.00683208      8.41858     -129.457 
0.00651041      11.4422     -119.590 
0.00349579      22.4580     -128.401 
0.00347570      7.20850     -129.653 
0.00346618      12.3485     -120.407 
0.00346745      3.50464     -132.109 
0.00347225      18.9935     -120.886 
0.00345782      20.3301     -126.701 
0.00972554      6.53165     -123.447 
0.00581008      6.40020     -143.578 
0.00343398      21.6745     -125.707 
0.00341457      18.3674     -125.248 
0.00338829      19.5533     -123.528 
0.00338583      6.88840     -140.301 
0.00338077      23.0107     -127.318 
0.00334642      19.1750     -125.555 
0.00611744      5.92305     -144.968 
0.00625114     0.353553     -81.8699 
0.00332994      13.5765     -124.041 
0.00332996      5.99083     -123.425 
0.00722039      4.06725     -136.494 
0.00331980      20.1090     -121.477 
0.00330793      11.8643     -119.266 
0.00330170      18.5968     -123.263 
0.00326909      22.6377     -128.363 
0.00326426      7.27272     -130.259 
0.00327005      14.1048     -122.845 
0.00988351      4.91757     -137.060 
0.00324420      20.6781     -122.960 
0.00599417      11.3988     -119.714 
0.00321084      23.6812     -127.451 
0.00320989      19.3536     -120.938 
0.00320168      18.1397     -123.077 
0.00599241      20.3600     -126.814 
0.00318798      6.74036     -142.535 
0.00316332      5.46466     -122.672 
0.00597253      12.3916     -120.290 
0.00315785      8.28794     -131.576 
0.00316003      18.7794     -121.278 
0.00612521      23.1375     -128.331 
0.00311820      5.95189     -144.574 
0.00582396     0.320156      38.6598 
0.00311610      21.9835     -127.886 
0.00311185      18.3555     -125.465 
0.00311476      13.5351     -124.160 
0.00514299      7.30514     -130.559 
0.00311149      14.1320     -123.015 
0.00308220      7.34932     -140.244 
0.00307297      19.3619     -126.071 
0.00581715      18.5276     -123.218 
0.00796489      23.6508     -127.354 
0.00303362      8.44423     -130.197 
0.00452068      12.7822     -119.272 
0.00590012      17.8847     -125.556 
0.00300955      20.7473     -123.001 
0.00317465      14.6291     -121.300 
0.00298788      19.3709     -120.735 
0.00295694      14.1510     -122.005 
0.00295617      7.46676     -137.442 
 0.0103614      1.77553     -147.653 
0.00540670      5.96343     -123.024 
 0.0104709      11.8400     -119.055 
0.00294485      18.9679     -120.757 
0.00560055      8.32001     -126.939 
0.00546980      8.38287     -136.692 
0.00291985      18.1125     -122.944 
0.00290909      19.5205     -126.459 
0.00290778      13.6046     -124.216 
0.00290734      5.99270     -144.851 
0.00290919      21.8953     -125.614 
0.00288947      23.6415     -127.524 
 0.0191452      5.45000     -123.398 
0.00286464      6.81047     -142.457 
0.00286223      3.07002     -142.943 
0.00797314      12.7142     -119.186 
0.00283623      18.7945     -122.506 
0.00283115      14.1775     -122.177 
0.00283468      8.62699     -135.470 
0.00283095      23.1294     -128.505 
 0.0206141      1.34629     -121.329 
0.00562024      7.81697     -129.289 
0.00281151      17.3223     -122.864 
0.00280602      20.1257     -121.281 
0.00281538      25.6287     -129.061 
0.00279353      14.6460     -121.031 
0.00277848      3.43839     -130.872 
0.00537256      6.47708     -122.709 
0.00682811      4.84691     -137.090 
0.00276861      21.1400     -126.924 
0.00276042      13.7023     -124.444 
0.00527237      7.37055     -131.149 
0.00273643      22.4891     -128.501 
0.00272874      21.5756     -125.569 
0.00271509      18.2858     -125.428 
0.00271595      14.1033     -123.577 
0.00270326      20.1684     -121.207 
0.00270308      8.62786     -135.939 
0.00268538      19.5503     -126.577 
0.00268449      24.7551     -128.027 
0.00267691      13.5146     -120.455 
0.00267331      22.9600     -126.945 
0.00266346      19.0109     -120.679 
0.00743188      17.2952     -122.725 
0.00265527      1.32098     -119.476 
0.00263819      20.7746     -123.116 
0.00264054      7.50367     -137.701 
0.00952578      18.0128     -125.852 
0.00270757      4.10670     -137.961 
0.00477012      7.78540     -129.005 
0.00906383     0.403113     -82.8750 
0.00260905      18.4584     -123.174 
0.00260277      14.1032     -119.291 
0.00504777      5.96406     -145.244 
0.00260599      19.0715     -126.149 
0.00259291      13.5915     -124.509 
0.00495908      25.5899     -129.132 
0.00493215      3.37380     -129.588 
0.00257254      19.4139     -120.660 
0.00463286      11.3306     -119.619 
0.00255046      22.5594     -128.521 
0.00254597      8.30060     -126.180 
0.00253399      18.6848     -121.095 
0.00252524      19.7500     -126.870 
0.00252218      23.1997     -128.525 
0.00483877      14.0760     -124.142 
0.00252266      6.78012     -142.792 
0.00252177      18.1545     -122.858 
0.00250883      22.6108     -125.096 
0.00446300      22.0509     -124.375 
0.00890305      8.66271     -135.702 
0.00246815      3.74066     -142.058 
0.00638771      14.0983     -118.838 
0.00244860      13.5220     -124.454 
0.00245336      19.0608     -126.359 
0.00801515      3.08058     -144.246 
0.00243680      12.3665     -120.090 
0.00242586      21.5465     -125.460 
0.00351300      16.4671     -122.098 
0.00241849      20.7892     -122.926 
0.00242129      24.7637     -127.865 
0.00241409      7.20850     -140.347 
0.00241322     0.471699      32.0054 
0.00240692      8.50412     -131.186 
0.00239282      18.9854     -120.550 
0.00239042      17.2803     -122.954 
0.00238293      22.5203     -128.600 
0.00237845      13.8825     -124.434 
0.00238231      5.26901     -136.153 
0.00656331      11.3741     -119.495 
0.00236203      20.1168     -120.964 
0.00235554      20.1701     -127.040 
0.00235812      7.75403     -128.718 
0.00455319      6.45019     -122.335 
0.00234711      23.0203     -127.144 
0.00646204      7.57793     -138.209 
0.00232825      18.1965     -122.773 
0.00669951      8.51543     -120.329 
0.00232023      19.0904     -126.480 
0.00230923      15.4972     -121.947 
0.00853563      22.0922     -124.301 
0.00576230      12.7578     -119.076 
0.00285526      4.21930     -139.325 
0.00229253      18.6162     -121.043 
0.00228341      19.6701     -127.045 
0.00446788      13.5093     -124.749 
0.00228349      6.92694     -140.565 
0.00228201      16.4248     -122.190 
0.00228035      8.31174     -125.698 
0.00227534      23.4807     -128.603 
0.00227653      19.3885     -120.533 
 0.0110256      3.34216     -128.928 
0.00440360      12.3233     -120.206 
0.00403059      7.33774     -130.855 
0.00224990      3.04385     -137.663 
0.00224620      14.6813     -121.633 
0.00224206      26.2376     -128.967 
0.00224360      18.2044     -125.611 
0.00222172      21.9046     -128.047 
0.00221614      20.8019     -123.232 
0.00220014      5.93570     -145.641 
0.00412293      17.2683     -122.586 
0.00219050      23.2621     -128.718 
0.00219123      9.30390     -133.040 
0.00218510      17.9430     -125.816 
0.00600110      21.1498     -122.939 
0.00586003      24.7331     -127.773 
0.00446797      13.9393     -124.773 
0.00414659      18.5905     -120.911 
 0.0108182      14.0743     -118.659 
0.00374792      4.42041     -142.352 
0.00406432      8.28266     -125.417 
0.00215689      19.7003     -127.161 
0.00329553      16.3982     -122.042 
0.00214778      6.84105     -142.125 
0.00214065      19.4315     -120.458 
0.00783785      15.5133     -121.692 
0.00554079     0.360555      33.6901 
0.00212639      18.1274     -122.726 
0.00402898      23.6205     -127.258 
0.00410809      19.1501     -126.720 
0.00210974      14.8106     -123.851 
0.00414416      9.34050     -132.831 
0.00401909      13.3111     -126.138 
0.00404412      6.00521     -145.516 
0.00209694      23.5510     -128.622 
0.00397755      11.8158     -118.843 
0.00208240      22.6518     -125.023 
0.00208118      18.4730     -122.959 
0.00207772      20.1341     -120.769 
0.00206888      22.5125     -128.779 
0.00206052      8.49029     -120.038 
 0.0125418     0.364005     -74.0546 
0.00205124      7.24707     -140.599 
0.00205091      17.2261     -122.675 
0.00701742      4.50000     -143.130 
0.00204463      18.9600     -120.420 
0.00203882      20.2002     -127.154 
0.00203851      13.4392     -119.904 
0.00370484      25.6215     -129.219 
0.00202037      8.29473     -124.935 
0.00237051      21.8653     -128.128 
0.00517649      16.3558     -122.135 
0.00558748      26.2062     -128.882 
0.00201905      20.8291     -123.843 
0.00265964      12.6899     -118.989 
0.00199965      6.42359     -121.958 
0.00200233      5.23307     -135.774 
0.00200024      6.72012     -143.471 
0.00386980      12.6129     -125.643 
0.00612324      2.20227     -129.472 
0.00452736      18.2161     -125.391 
0.00196426      5.49181     -123.111 
0.00196397      14.5619     -120.087 
0.00196157      23.2231     -128.795 
0.00196302      13.4682     -124.870 
0.00196856      8.54239     -123.783 
0.00196839      19.4062     -120.331 
0.00195148      9.37723     -132.623 
0.00194465      20.1775     -123.375 
0.00193953      14.0500     -124.708 
0.00193416      8.53361     -119.870 
0.00467436      21.1078     -123.012 
0.00366670      12.2801     -120.324 
0.00889651      3.38120     -128.395 
0.00375840      17.9319     -126.039 
0.00192598      22.5828     -128.798 
0.00190847      8.27587     -136.469 
0.00190296      19.7608     -127.392 
0.00189116      19.0285     -120.473 
0.00188946      6.37064     -143.940 
0.00188185      22.7214     -125.054 
0.00188039      9.41409     -132.417 
0.00187527      18.5648     -120.779 
0.00187274      5.89428     -122.881 
0.00207722      14.8665     -124.171 
0.00186925      16.8809     -122.419 
0.00187501      6.96724     -133.546 
0.00186218      21.8962     -128.231 
0.00784832      12.6657     -118.791 
0.00185894      17.9355     -122.361 
0.00517151      8.66213     -135.234 
0.00249401      19.3501     -127.018 
0.00185024      8.50882     -119.578 
0.00184756      13.9966     -125.109 
0.00356417      23.6136     -128.811 
0.00185124      20.1516     -120.574 
0.00517652      11.3496     -119.275 
0.00183537      5.51928     -123.546 
0.00614158      4.54010     -143.509 
0.00182742      19.4243     -120.129 
0.00353006      8.26620     -124.651 
0.00357274      10.6266     -118.374 
0.00182000      7.03598     -140.768 
0.00350631      9.48815     -132.010 
0.00180708      20.1907     -127.352 
0.00387059      12.5723     -125.776 
0.00180169      20.8013     -123.728 
0.00180397      7.61528     -138.460 
0.00350726      16.2869     -122.080 
0.00337738      6.01851     -146.178 
0.00389118      21.9272     -128.333 
0.00222530      2.93471     -134.310 
0.00584695      6.39727     -121.578 
0.00481505      17.1992     -122.535 
0.00495833      23.3248     -128.909 
0.00177977      22.1046     -125.703 
0.00177512      13.4969     -125.044 
0.00177749      8.38630     -120.847 
0.00318092     0.514782      29.0546 
0.00176403      6.88059     -142.381 
0.00214711      14.0663     -125.159 
0.00175241      4.06356     -145.528 
0.00175361      18.5219     -120.858 
0.00633516      9.33809     -133.264 
0.00175500      14.5555     -119.647 
0.00174725      19.2401     -127.078 
0.00840973      4.88365     -137.490 
0.00173096      8.57161     -118.957 
0.00296503      17.1820     -126.003 
0.00469353      20.2611     -123.219 
0.00172272      13.2707     -126.265 
0.00469393      22.1204     -124.408 
0.00172554      18.0045     -122.410 
0.00171610      7.35612     -140.793 
0.00333805      19.3992     -120.001 
0.00171391     0.412311     -75.9638 
0.00170485      22.5753     -128.977 
0.00332738      17.9210     -126.262 
0.00467835      12.7095     -118.682 
 0.0109628      15.4871     -121.535 
0.00168444      8.36077     -120.552 
0.00168562      13.8861     -125.178 
0.00168343      19.7211     -127.480 
0.00168289      5.97704     -145.911 
0.00167653      7.03651     -134.136 
0.00721180      18.4963     -120.725 
0.00167370      16.8119     -122.367 
0.00166884      23.8005     -127.231 
0.00753338      12.5025     -125.724 
0.00274249      5.78317     -123.003 
0.00165828      22.6927     -124.951 
0.00165443      14.8799     -123.904 
0.00165135      18.3768     -122.782 
0.00165203      7.84873     -129.572 
0.00322021      8.63539     -118.346 
0.00298936      7.65278     -138.708 
0.00304568      10.6471     -118.009 
0.00164246      19.4503     -127.164 
0.00317479      13.4087     -119.241 
0.00592435      9.52536     -131.808 
0.00375436      4.95429     -137.454 
0.00315171      8.23787     -124.365 
0.00162108      7.28577     -140.849 
0.00161908      13.3406     -126.312 
0.00161135      14.0951     -125.325 
0.00161175      6.76036     -143.723 
0.00309365      18.1872     -125.263 
0.00295125      5.72800     -135.707 
0.00159900      8.19878     -120.005 
0.00159443      14.5308     -119.476 
0.00159679      19.0032     -120.343 
0.00159585      22.6456     -128.996 
0.00296853      16.2022     -122.268 
0.00158753     0.403113      29.7449 
0.00306165      20.0717     -127.612 
0.00157159      24.7421     -127.611 
0.00157407      18.5393     -120.646 
0.00352932      17.2114     -126.138 
0.00157021      5.74130     -123.275 
0.00157346      11.8596     -118.726 
0.00304917      20.1440     -120.256 
0.00253174      4.56098     -135.444 
0.00156248      7.33638     -123.040 
0.00155391      14.0801     -126.626 
0.00155509      9.26998     -121.547 
0.00431254      14.0064     -118.578 
0.00429996      10.6029     -118.136 
0.00154593      26.1435     -128.711 
0.00296550      22.1617     -124.335 
0.00154728      21.9893     -128.538 
0.00295406      7.33297     -131.406 
0.00155079      18.0201     -122.191 
0.00154757      2.86575     -132.879 
0.00154868      11.4570     -124.869 
0.00153933      19.2703     -127.197 
0.00249157      3.35037     -127.725 
0.00152687      23.8705     -127.254 
0.00152420      16.6739     -122.260 
0.00283197      6.83026     -143.633 
0.00152166      20.6626     -123.652 
0.00152226      17.9104     -126.486 
0.00151348      5.23259     -135.000 
0.00151032      13.4272     -124.992 
0.00151162      17.2146     -122.305 
0.00151139      22.1744     -125.733 
0.00415081      7.65768     -139.236 
0.00231622      14.1359     -125.208 
0.00149817      9.25324     -120.167 
0.00148853      26.1748     -128.797 
0.00148815      19.0463     -120.267 
0.00148924      23.0001     -125.176 
0.00148736      9.52956     -131.384 
0.00409595      11.3689     -118.932 
0.00148229      22.6383     -129.174 
0.00147617      8.14923     -119.396 
0.00146981      13.3004     -126.439 
0.00147162      8.63264     -117.604 
0.00146736      6.72644     -122.863 
0.00287325      6.06012     -146.441 
0.00146856      23.6764     -129.000 
0.00146876      14.9513     -124.647 
0.00146431      16.2445     -122.174 
0.00286443      22.0205     -128.639 
0.00146627      19.4611     -119.727 
0.00276169      7.32462     -141.096 
0.00269573      8.48999     -133.091 
0.00145083      12.3309     -120.725 
0.00257781      7.36699     -121.964 
0.00380102      6.80074     -143.973 
0.00144322      19.2032     -127.914 
0.00143996      24.9884     -129.072 
0.00144185      17.9246     -122.005 
0.00284341      14.2801     -127.030 
0.00396982      12.6417     -118.592 
0.00402251      23.9804     -127.204 
0.00330220      8.44541     -123.408 
0.00512355      21.1770     -123.052 
0.00489205      17.9700     -126.742 
0.00372562      7.30000     -131.112 
0.00776543      1.66883     -171.384 
0.00141698      9.25378     -121.973 
0.00141381      2.83196     -132.138 
0.00141831      13.4718     -118.848 
0.00376867      5.85235     -123.147 
0.00141055      8.81022     -116.274 
0.00483729      4.45477     -135.000 
0.00141337      23.2859     -128.986 
0.00449934      11.4856     -125.074 
0.00140399      14.7340     -121.964 
0.00422564      19.4407     -127.371 
0.00140346      20.1372     -119.939 
0.00139426      6.48093     -144.103 
0.00269506      25.0713     -127.464 
0.00150920      17.9670     -121.921 
0.00139174      14.0504     -118.480 
0.00265583      23.0409     -125.104 
0.00267524      18.9528     -120.082 
0.00138377      13.4113     -124.520 
0.00138156      8.20975     -124.077 
0.00137848      22.7403     -129.289 
0.00137789      19.4363     -119.599 
0.00382572      9.37243     -133.487 
0.00137031      18.0400     -126.775 
0.00232840      6.37122     -121.195 
0.00136590      20.5933     -123.613 
0.00479787      13.3301     -126.612 
0.00136126      7.46090     -120.174 
0.00135466      16.6050     -122.207 
0.00135695      8.10062     -118.780 
0.00587312      9.56269     -131.609 
0.00376158      20.0321     -127.699 
0.00134287      26.1123     -128.626 
0.00134171      22.0442     -128.924 
0.00134770      17.2007     -126.370 
0.00134718      28.5227     -126.086 
0.00134103      5.81055     -123.417 
0.00134033      11.7882     -118.087 
0.00260640      8.60959     -117.309 
0.00134094      23.8170     -129.036 
0.00133101      13.4478     -118.661 
0.00247724      6.10184     -146.701 
0.00133026      14.3102     -127.190 
0.00132616      18.1583     -125.134 
0.00133049      9.28668     -121.122 
0.00132366      10.6237     -117.771 
0.00132617      14.5063     -119.304 
0.00131517      19.2340     -128.032 
0.00304146      3.12130     -144.782 
0.00131113      16.0910     -122.307 
0.00140087      17.9406     -121.785 
0.00510475      29.4123     -126.149 
0.00252588      11.4980     -124.727 
0.00371565      19.4798     -119.526 
0.00130075      23.3174     -129.082 
0.00355657      14.0602     -127.196 
0.00434513      4.41956     -134.542 
0.00384241      8.49264     -132.614 
0.00129223      22.3140     -125.791 
0.00129529      17.1724     -122.394 
0.00666319      2.17083     -128.454 
0.00129058      8.92202     -116.278 
0.00128711      24.9425     -129.306 
0.00128254      6.98033     -121.527 
0.00127809      22.1775     -129.144 
0.00250174      20.1122     -119.816 
0.00238654      19.4711     -127.488 
0.00442475      15.1513     -127.626 
0.00127336      6.03262     -146.837 
0.00516583      1.81797     -148.496 
0.00247454      12.5318     -125.910 
0.00299638      17.1202     -126.569 
0.00164545      13.0009     -118.734 
0.00126230      18.4459     -122.829 
0.00126288      8.14448     -118.610 
0.00236070      14.0785     -124.875 
0.00125292      9.29207     -122.920 
0.00355341      28.4823     -126.146 
0.00124957      22.7016     -129.369 
0.00124012      16.3702     -126.555 
0.00241031      17.9143     -121.649 
0.00230182      25.0410     -127.373 
0.00225315      7.41772     -120.368 
0.00122962      14.3803     -127.228 
0.00621653      10.5795     -117.897 
0.00235034      7.36359     -141.340 
0.00122685      2.76586     -130.601 
0.00122224      23.8098     -129.205 
0.00121705      25.9879     -128.281 
0.00121488      19.4010     -127.461 
0.00121514      14.9962     -125.227 
0.00121464      22.2312     -124.369 
0.00230675     0.250000      36.8699 
0.00121172      13.4917     -118.560 
0.00231022      18.1296     -125.005 
0.00121059      22.1387     -129.226 
0.00120983      6.46607     -121.724 
0.00120577      17.2992     -122.128 
0.00120480      8.85508     -116.131 
0.00120581      6.07454     -147.095 
0.00119762      23.0122     -125.002 
0.00119843      18.9961     -120.007 
0.00119855      8.27919     -124.170 
0.00120073      23.3102     -129.255 
0.00119137      18.0000     -126.870 
0.00426880      10.2899     -123.304 
0.00118544      13.3830     -124.343 
0.00225626      24.9039     -129.378 
0.00231114      18.4533     -120.804 
0.00118108      17.0400     -126.769 
0.00118113      5.19832     -133.831 
0.00117764      9.37363     -118.342 
0.00117844      20.7319     -123.690 
0.00117510      11.3649     -118.369 
0.00117591      6.77145     -144.315 
0.00230146      22.7333     -129.467 
0.00117058      19.1946     -128.124 
0.00226026      24.0601     -127.060 
0.00117488      9.28036     -122.234 
0.00311199      5.38075     -123.247 
0.00471004      13.1367     -118.906 
0.00116562      8.09707     -117.989 
0.00708526      1.01242     -147.095 
0.00115806      14.0304     -118.757 
0.00219665      12.6421     -125.827 
0.00311371      19.1094     -123.690 
0.00205435      23.2048     -124.820 
0.00316721      8.34865     -136.941 
0.00115308      14.3501     -127.070 
0.00225122      8.63134     -116.862 
0.00115082      24.5807     -127.313 
0.00221383      20.0874     -119.692 
0.00340353      22.2272     -129.707 
0.00482948      16.3301     -126.659 
0.00114797      12.5300     -118.610 
0.00220005      7.69562     -139.479 
0.00114193      3.13409     -146.056 
0.00113955      6.76849     -122.634 
0.00113712     0.559017      26.5651 
0.00113617      3.41248     -129.053 
0.00113445      25.9039     -127.865 
0.00211538      9.33622     -133.698 
0.00113455      4.47018     -143.643 
0.00119897      17.9047     -121.293 
0.00287776      13.5156     -118.746 
0.00275209      17.2409     -126.272 
0.00112118      8.52423     -133.336 
0.00112352      11.8324     -117.973 
0.00112008      20.1805     -119.868 
0.00112153      9.29624     -121.809 
0.00112306      25.1111     -127.395 
0.00111474      23.9505     -129.239 
0.00111359      14.9843     -125.493 
0.00111578      19.5915     -119.509 
0.00111219      8.02948     -117.842 
0.00205956      22.1899     -124.442 
0.00110637      17.2303     -122.076 
0.00110754      23.3419     -129.350 
0.00109748      5.72757     -135.000 
0.00130420      19.0828     -119.857 
0.00212414      8.50088     -123.970 
0.00469630      14.4106     -127.387 
0.00109028      14.4382     -119.228 
0.00210076      6.11658     -147.349 
0.00389381      16.4001     -126.695 
0.00209499      12.5978     -118.701 
0.00282856      21.1625     -123.240 
0.00358519      20.1022     -127.725 
0.00108055      11.3853     -118.028 
0.00107706      7.00071     -134.421 
0.00301924      23.1353     -124.789 
0.00309430      17.8881     -121.513 
0.00200138      9.57131     -117.368 
0.00106869      2.80401     -129.936 
0.00305875      18.4278     -120.670 
0.00900553      10.2482     -123.457 
0.00106240      6.63193     -144.513 
0.00106436      16.9700     -126.735 
0.00106693      25.9733     -129.297 
0.00382730      9.40691     -133.708 
0.00106073      15.4610     -121.377 
0.00106202      8.90000     -115.989 
0.00352820      21.2305     -127.248 
0.00317310      13.8554     -119.155 
0.00301033      28.4419     -126.205 
0.00199144      9.30712     -122.495 
0.00104945      19.6596     -119.564 
0.00195044      5.12957     -133.025 
0.00104350      11.3619     -117.806 
0.00286557      1.71172     -173.290 
0.00273289      17.2038     -121.935 
0.00104072      23.8731     -129.391 
0.00299190      8.05062     -117.361 
0.00187844      22.7052     -124.775 
0.00103711      12.9330     -118.646 
0.00193597      19.1553     -128.216 
0.00136743      22.8037     -129.484 
0.00103295      19.1696     -119.708 
0.00102800      6.90018     -143.545 
0.00276952      25.0807     -127.304 
0.00102208      15.4350     -121.218 
0.00200073      24.0505     -127.227 
0.00102204      20.1556     -119.745 
0.00196561      21.1899     -123.353 
0.00101983      4.39005     -142.869 
0.00195390      22.2592     -129.806 
0.00101486      16.9300     -126.836 
0.00101627      25.8732     -127.778 
0.00481992     0.141421      45.0000 
0.00100706      8.65361     -116.417 
0.00100521      18.1992     -125.044 
0.00100583      23.2515     -129.853 
0.00100433      7.70146     -140.004 
0.00166788      23.1763     -124.719 
0.000999627      14.4819     -119.131 
0.000998949      7.33246     -141.645 
0.000999022      19.7031     -119.492 
0.000993855      13.9600     -126.993 
0.00186497      9.61574     -117.231 
0.000995684      19.0401     -123.648 
0.00178589      24.8652     -129.452 
0.00184822      16.2180     -122.024 
0.00696480      9.56713     -131.186 
0.00280156      5.82516     -122.735 
0.000987193      6.45174     -144.462 
0.000987752      22.6434     -129.984 
0.00282666      26.1202     -126.672 
0.00355221      9.32269     -122.071 
0.00151843      13.0688     -118.820 
0.00262798      21.7951     -128.106 
0.000977476      14.4201     -127.108 
0.000979922      20.0627     -119.568 
0.00185590      10.6005     -117.532 
0.00184265      2.73359     -129.806 
0.000970637      8.69770     -135.466 
0.000970315      11.3156     -117.358 
0.000970836      14.7076     -121.799 
0.00189496      6.15873     -147.600 
0.000969568      6.81065     -122.407 
0.00187543      23.2979     -124.065 
0.000966025      19.1160     -128.309 
0.000965630      23.4122     -129.367 
0.000965438      19.1883     -119.504 
0.000965601      15.4445     -121.632 
0.000964409      22.7139     -129.999 
0.00358805      17.8620     -121.376 
0.000957632      15.0134     -125.649 
0.00273347      17.9300     -126.838 
0.000954752     0.604152      24.4440 
0.00443213      19.1372     -123.815 
0.000950291      7.40270     -141.582 
0.00182727      25.8426     -127.690 
0.000944860      24.0208     -129.256 
0.000948276      19.7221     -119.294 
0.000945123      17.2727     -121.988 
0.00183910      8.72138     -115.831 
0.00435569      1.86078     -149.300 
0.00333127      16.9001     -126.700 
0.000940563      6.84124     -144.219 
0.00179338      12.7931     -125.616 
0.000939468      11.8090     -117.759 
0.000938118      24.3501     -126.988 
0.00182376      20.2239     -119.798 
0.000931618      13.2046     -118.991 
0.00370664      17.8455     -121.597 
0.00175080      18.4023     -120.537 
0.00180074      15.4183     -121.474 
0.00392333      9.37083     -133.919 
0.000922936      13.8991     -119.055 
0.000922231      7.39358     -122.293 
0.00130884      22.8033     -124.910 
0.000916076      23.2453     -130.026 
0.00173543      13.3600     -126.784 
0.00246816      29.0118     -126.238 
0.000917145      7.61134     -137.929 
0.000916314      19.2754     -119.358 
0.000911966      16.4406     -121.950 
0.00177802      8.02776     -117.044 
0.00245939      24.8970     -129.540 
0.000910575      13.8600     -126.787 
0.000905662      22.7460     -130.096 
0.00170616      6.49250     -144.719 
0.000902057      19.8338     -119.279 
0.000904026      11.2927     -117.132 
0.000897982      12.6016     -125.961 
0.000897530      8.45592     -132.843 
0.00362768      22.2208     -129.888 
0.00313463      8.43149     -123.879 
0.000891443      14.4576     -118.958 
0.000888891      24.0525     -129.348 
0.000886726      14.4503     -127.266 
0.00318284      28.4312     -126.346 
0.00253710      6.20101     -147.848 
0.00386369      24.2500     -126.870 
0.000880512      7.44194     -141.821 
0.000878976      18.3593     -120.616 
0.00228708      13.8118     -119.256 
0.00112116      19.0767     -119.521 
0.000873305      23.3157     -130.042 
0.000873457      6.87059     -143.881 
0.00285574      15.1606     -127.361 
0.00365187      7.26722     -130.815 
0.00247783      11.5144     -125.277 
0.00259677      6.30258     -121.042 
0.00240510      8.38526     -137.175 
0.00167251      3.32002     -127.042 
0.00168750      11.8766     -117.860 
0.000859632      19.3871     -119.342 
0.00155456      13.8900     -126.952 
0.00162502      29.3425     -126.128 
0.00161829     0.650000      22.6199 
0.000852818      22.7078     -130.177 
0.00313440      20.2488     -119.920 
0.00296850      26.1500     -126.760 
0.00164097      7.37835     -122.829 
0.000852180      23.4440     -129.461 
0.000852028      18.6173     -125.269 
0.00191956      16.2602     -126.623 
0.00158558      17.2462     -121.847 
0.000843914      8.69856     -135.932 
0.000840564      8.67640     -115.974 
0.000840461      19.7658     -119.224 
0.000841186      23.9220     -127.612 
0.000839703      17.8017     -120.743 
0.00252906      19.1863     -128.333 
0.00162442      7.73369     -139.720 
0.00162045      8.00515     -116.725 
0.000832267      15.3923     -121.315 
0.000832447      7.37174     -141.886 
0.000828635      13.5665     -125.096 
0.000828562      22.7783     -130.192 
0.00162563      23.3114     -123.895 
0.00143431      5.72800     -134.293 
0.000821337      16.4142     -121.802 
0.000820692      18.0602     -127.124 
0.00294129      6.91104     -144.125 
0.00307070      5.03289     -130.972 
0.00226041      9.59297     -116.966 
0.000815500      15.0251     -125.383 
0.000815755      18.7852     -119.499 
0.00156285      24.0842     -129.440 
0.00120713      24.3200     -126.893 
0.00199730      8.45887     -132.365 
0.00147125      6.93776     -121.743 
0.00225964      12.6310     -126.144 
0.000804893      19.6785     -119.366 
0.00156798      15.3757     -121.571 
0.000803703      25.8213     -127.447 
0.000802755      11.2700     -116.906 
0.00219976      19.0678     -123.773 
0.000798157      14.5014     -118.863 
0.00254040      7.88067     -129.852 
0.00498917     0.380789     -66.8014 
0.000797034      23.3420     -130.308 
0.00401896      8.69971     -115.534 
0.00224881      18.3770     -120.402 
0.00147132      26.5819     -129.198 
0.000789216      4.63276     -136.312 
0.00154013      19.1638     -119.374 
0.000784941      22.8106     -130.288 
0.00153520      12.6219     -118.900 
0.00290880      21.1351     -123.126 
0.00150798      5.35350     -122.800 
0.000780925      19.8094     -119.153 
0.00202910      1.76139     -173.480 
0.000775630      24.1800     -126.846 
0.000777813      12.6714     -126.011 
0.000774804      19.4805     -127.282 
0.000772995      22.8320     -125.013 
0.00143913      13.8798     -119.335 
0.00107379      9.36509     -121.908 
0.00136966      17.8194     -121.460 
0.000776324      13.9902     -127.157 
0.000775854      7.30154     -141.953 
0.000775717      2.77218     -129.144 
0.00272469      5.79828     -122.320 
0.00330261      17.7303     -126.514 
0.000772261      11.2474     -116.679 
0.000766288      4.18151     -138.879 
0.000764783      23.8213     -129.806 
0.000765360      22.2673     -125.403 
0.00173562      8.65462     -115.677 
0.00219533      6.24340     -148.092 
0.00278082      10.5775     -117.292 
0.00113776      15.0426     -125.803 
0.00581211      25.0504     -127.213 
0.000759749      7.23464     -130.515 
0.00343817      14.4410     -127.544 
0.000756620      23.4068     -130.495 
0.00188377      17.8102     -121.102 
0.00216630      7.98279     -116.405 
0.00145533      16.3453     -121.745 
0.000749522      26.8101     -127.041 
0.000748223      19.4104     -127.254 
0.000747361      17.1604     -126.469 
0.00143006      19.7851     -119.026 
0.000744819      4.97443     -129.289 
0.00515996      21.8260     -128.209 
0.00141514      6.53338     -144.972 
0.000736949      3.29014     -126.347 
0.000737323      13.8200     -126.911 
0.000736800      17.9001     -126.710 
0.000735395      22.8811     -130.303 
0.00138401      25.7909     -127.359 
0.00126640      20.2738     -120.043 
0.00204511      11.8533     -117.646 
0.00417717      9.34933     -122.330 
0.000730683      13.2602     -126.567 
0.000729783      18.4201     -120.324 
0.000728699      23.1891     -124.547 
0.000730444      28.4016     -126.265 
0.000727303      15.3664     -121.156 
0.00135511      7.77190     -139.958 
0.000728820      22.3234     -130.003 
0.00176571      17.8361     -121.239 
0.000723211      23.4393     -130.588 
0.00323001      1.37295     -123.111 
0.00205750      7.41114     -142.125 
0.000719760      19.2266     -119.098 
0.000721758      12.7336     -118.880 
0.00139912      23.3529     -123.826 
0.00138814      11.5434     -125.480 
0.00125984      6.89529     -121.961 
0.000713864      14.5212     -118.595 
0.000709622      7.47930     -119.650 
0.000710878      19.1471     -128.426 
0.00200242      19.7609     -118.900 
0.00136367      11.2251     -116.451 
0.000705857      8.42200     -137.406 
0.00266236      3.16228     -145.305 
0.000705366      22.8049     -130.465 
0.000703586      15.0610     -126.223 
0.00101963      13.8363     -119.437 
0.00129900      24.0317     -127.561 
0.000700051      18.6682     -119.174 
0.00126856      22.7624     -124.982 
 0.0106539     0.851469      40.2364 
0.00135827      26.8403     -127.126 
0.000694738      18.2451     -125.519 
0.00177334      17.1774     -121.793 
0.00100069      22.8741     -129.501 
0.000691235      13.1126     -118.715 
0.000690417      2.55196     -124.624 
0.000690015      28.9715     -126.296 
0.000689772      15.3496     -121.412 
0.000689792      15.1910     -127.511 
0.000690943      24.0390     -129.684 
0.00126674      24.2900     -126.799 
0.000685722      19.3802     -127.136 
0.00154301      22.2529     -129.987 
0.000683030      17.0101     -126.634 
0.000682163      8.73456     -136.160 
0.000679834      19.1829     -119.171 
0.000682041      23.4719     -130.681 
0.000678408      12.7009     -126.193 
0.00290249      9.57210     -130.764 
0.00617842      4.89004     -127.104 
0.00185119      8.35135     -137.426 
0.000668326      15.3236     -121.252 
0.00129265      3.26075     -125.640 
0.000664942      13.7900     -126.745 
0.00184534      18.3517     -120.268 
0.00125828      9.65984     -116.432 
0.00129888      6.21711     -148.483 
0.000857745      21.8569     -128.312 
0.000663785      20.3170     -119.972 
0.00227227      10.2758     -123.690 
0.000659617      5.69232     -134.644 
0.000661385      14.4773     -118.689 
0.000661612      23.5045     -130.773 
0.00129929      23.9353     -123.756 
0.000658894      16.5680     -121.675 
0.00245806      7.96068     -116.082 
0.00120471      22.2384     -125.298 
0.000655971      25.3579     -129.560 
0.00128235      19.2023     -118.968 
0.000654833      17.7687     -120.245 
0.00214462      22.2851     -130.085 
0.000653177      13.2900     -126.741 
0.000651271      23.2500     -126.870 
0.00189829      16.6501     -126.698 
0.000649367      29.0414     -126.317 
0.000650012      13.2922     -118.782 
0.000646635      18.2336     -125.739 
0.000647089      23.8854     -129.990 
0.00351258      9.40558     -134.138 
0.00204280      4.34166     -141.546 
0.000645122      22.9079     -130.574 
0.000645451      7.76611     -139.439 
0.000641819      12.6606     -126.327 
0.00292501      11.0114     -129.472 
0.00124307      28.3613     -126.324 
0.000639973      15.0719     -125.958 
0.000641799      15.3754     -120.484 
0.000640466      24.1864     -129.548 
0.000640201      8.40372     -123.596 
0.00186510      18.3085     -120.347 
0.000636988      20.6700     -122.152 
0.00115243     0.820061      37.5686 
0.00179812      26.8705     -127.211 
0.000635148      23.4340     -130.760 
0.000635101      17.8718     -121.734 
0.000633802      13.4239     -118.474 
0.000630013      7.43303     -123.476 
0.00224504      11.5613     -126.027 
0.000626416      16.3191     -121.596 
0.000625131      6.32851     -121.430 
0.000625196      2.71017     -127.504 
0.00120890      23.3251     -123.724 
0.000624005      18.6001     -119.114 
0.00121851      24.9674     -129.556 
0.000622797      9.61509     -116.565 
0.000623785      14.3459     -118.977 
0.000916202      20.0811     -124.244 
0.000620672      6.57438     -145.222 
0.000620652      18.2913     -127.559 
0.00120944      13.6362     -125.147 
0.00118968      20.2921     -119.850 
0.000619945      22.8699     -130.656 
0.000618955      17.2199     -121.706 
0.00166808      24.2200     -126.775 
0.00250607      15.2906     -121.767 
0.000617246      19.2173     -128.450 
0.00121351      19.7806     -118.703 
0.000615739      11.2029     -116.222 
0.000610440     0.696419      21.0375 
0.00100446      9.42404     -121.329 
0.000611436      5.27376     -148.570 
0.00177340      23.4994     -130.945 
0.00140185      8.49588     -132.138 
0.00112157      1.84459     -147.171 
0.000609842      12.7413     -126.060 
0.00115802      17.1307     -126.335 
0.00167588      7.45067     -142.361 
0.000603983      19.1586     -119.040 
0.00107427      23.1479     -124.617 
0.00118504      17.8702     -126.581 
0.00172533      14.4320     -127.823 
0.00160782      7.52280     -119.461 
0.00220818      6.92261     -144.703 
0.00113649      23.9076     -123.657 
0.000596199      20.0627     -127.812 
0.000597148      29.0011     -126.376 
0.000598018      15.1400     -126.946 
0.00116259      15.3069     -121.509 
0.000596031      14.4973     -118.421 
0.000594767      12.8048     -125.304 
0.000593219      19.3900     -126.929 
0.000595343      8.73628     -136.623 
0.00265894      6.25979     -148.722 
0.00116569      22.9025     -130.751 
0.00147450      9.34773     -124.540 
0.00113047      20.6170     -121.917 
0.00243527      12.8259     -119.163 
0.00146995      5.32658     -122.347 
0.000585853      16.4992     -121.619 
0.00168930      19.7566     -118.576 
0.000583937      11.2478     -116.109 
0.00160662      2.15058     -125.538 
0.00110182      7.98389     -115.602 
0.00162691      23.9116     -130.250 
0.000575822      25.7606     -127.270 
0.000576665      12.2826     -118.443 
0.000577036      18.5759     -118.980 
0.000576684      15.3501     -120.324 
0.00144092      18.8033     -125.803 
0.00111864      3.23187     -124.919 
0.000572385      19.1980     -118.634 
0.000572616      13.6940     -125.489 
0.00159060      10.5992     -116.928 
0.000571550      24.1546     -129.456 
0.000570347      11.0500     -129.308 
0.000570084      26.6207     -129.130 
0.00111344      19.2565     -128.358 
0.000566125      12.2705     -127.384 
0.000564628      23.1901     -126.672 
0.00156430      14.4736     -118.247 
0.00191314      9.70580     -115.641 
0.00108027      23.9492     -123.591 
0.000561848      25.3898     -129.647 
0.00106333      5.72931     -133.586 
0.00255807      16.6902     -126.595 
0.00110292      12.6903     -126.509 
0.000559266      28.3317     -126.243 
0.000559397      18.4226     -127.834 
0.000556371      19.1782     -118.837 
0.00106761      7.81025     -140.194 
0.00107904      22.9679     -130.940 
0.000554856      11.2259     -115.880 
0.000554331      6.61551     -145.469 
0.000928124      7.44748     -122.943 
0.00104911      13.3324     -118.199 
0.00104753      8.74486     -115.393 
0.00282354      30.4976     -125.592 
0.000550487      18.5517     -118.845 
0.00156066      21.9582     -128.436 
0.00105847      23.2974     -123.622 
0.00104882      26.9103     -127.147 
0.000547819      8.77269     -136.848 
0.00219042      5.35934     -149.128 
0.00107853      23.5322     -131.037 
0.00103970      16.2929     -121.446 
0.000935668      15.0541     -125.538 
0.00198110      7.38055     -142.431 
0.00154293      28.9906     -126.514 
0.000545006      17.7370     -119.745 
0.000543464      17.8003     -126.548 
0.000542337      23.9763     -130.433 
0.00103484      7.96241     -115.278 
0.000541209      11.8302     -117.431 
0.000540378      15.3432     -119.907 
0.00102356      25.7304     -127.182 
0.00171684      22.8647     -130.832 
0.000976814      16.1902     -126.587 
0.000536051      20.1329     -127.838 
0.000534630      9.38136     -125.893 
0.000534264      19.1741     -118.503 
0.00147958      10.3530     -130.691 
0.000533082      14.4715     -127.701 
0.000530598      18.3882     -119.842 
0.000528015      13.8803     -127.241 
0.00102585      18.2409     -126.304 
0.000528694      9.68259     -116.036 
0.000529058      14.2780     -118.899 
0.000529246      5.39560     -122.512 
0.000526857      2.49650     -122.735 
0.00144987      15.2003     -127.247 
0.000524669      19.7090     -118.320 
0.000526130      23.9437     -127.875 
0.000905491      9.44100     -120.912 
0.000523289      19.3200     -126.900 
0.000523756      8.38824     -137.657 
0.000522787      26.9007     -127.296 
0.00140761      23.0007     -131.034 
0.000522518      11.2041     -115.650 
0.000981904      25.3194     -129.632 
0.000521436      16.7601     -126.631 
0.000518011      5.84059     -122.057 
0.00144216      19.1301     -118.575 
0.000582010      21.7920     -129.974 
0.000516954      12.7201     -126.690 
0.000516904      6.58730     -145.827 
0.000513423      18.5276     -118.709 
0.000513778      19.2876     -128.474 
-0.0148133     0.670820      116.565 
0.000959517      10.2065     -123.612 
0.000512834      17.7601     -126.644 
0.000512907      23.5651     -131.129 
0.000514039      19.7768     -118.379 
0.000511304      15.3370     -119.490 
0.000930885      12.2387     -118.554 
0.000990438      7.94796     -111.400 
0.000510097      20.1636     -127.950 
0.000509470      24.0413     -130.614 
0.000988099      12.2613     -127.711 
0.000510176      16.5418     -121.528 
0.00516729      28.2914     -126.303 
0.00140433      3.20351     -124.186 
0.000508473      13.6650     -125.318 
0.000508342      23.1603     -126.573 
0.000506528      4.30262     -141.132 
0.00172157      18.2833     -120.211 
0.000505980      13.8311     -118.974 
-0.0125642      1.05119      177.274 
0.000504343      15.0832     -125.692 
0.00501748      7.42024     -142.667 
0.000963470      8.45991     -122.939 
0.00105068      22.3878     -130.199 
0.000945592      20.2988     -120.165 
0.00305811      11.0432     -129.673 
0.000941146      24.1932     -129.381 
0.00179068      9.44047     -134.356 
0.000499391      17.7122     -119.604 
0.000499318      11.1591     -115.761 
0.000499016      8.77069     -136.386 
0.000497803      7.47479     -123.265 
0.00191713      19.7294     -118.124 
0.00131878      23.0336     -131.127 
0.000499263      26.6523     -129.214 
0.000496693      18.4448     -119.205 
0.000496783      4.94292     -128.841 
0.000982181      14.4233     -128.101 
0.000962542      21.1798     -122.565 
0.000493672      9.46678     -121.171 
0.00456879     0.427200     -69.4440 
0.00141761      23.9216     -123.491 
0.00187550      23.5980     -131.220 
0.000491574      20.0944     -124.046 
0.000491348      13.4106     -127.425 
0.00121191      21.6574     -129.755 
0.000487713      17.6876     -119.464 
0.000910465     0.790569      18.4349 
0.000943447      13.7058     -125.198 
0.000485419      22.3081     -125.329 
0.000485655      5.73149     -132.879 
0.000483496      9.36389     -125.218 
0.000484050      18.5770     -128.443 
0.000483887      24.0360     -130.782 
0.000483208      20.4001     -120.651 
0.000481653      19.3267     -128.382 
0.000480572      15.3125     -119.327 
0.000480227      18.4798     -118.437 
0.00138534      11.1826     -115.419 
0.00249418      23.2698     -123.519 
0.00170294      7.84235     -139.914 
0.000478328      2.46982     -121.759 
0.000621322      18.2582     -120.076 
0.000476114      13.1565     -118.610 
0.00200162      1.11803     -153.435 
0.000474638      27.0260     -128.842 
0.000931312      19.1063     -118.443 
0.000473378      24.9289     -129.629 
0.000473811      9.41515     -117.518 
0.000471742      20.0540     -128.013 
0.000471299      14.4627     -127.979 
0.000469422      5.77170     -121.900 
0.000470432      14.5177     -118.154 
0.000468989      6.65676     -145.713 
0.000469702      21.4114     -128.743 
0.000466984      18.0905     -126.458 
0.000467308      23.9744     -127.969 
0.000465783      7.26240     -131.371 
0.00125738      8.31760     -137.680 
0.000466062      17.1511     -121.651 
0.000466254      12.7598     -124.624 
0.00132800      8.00562     -115.925 
0.00347033      26.9405     -127.231 
0.000463676      13.7632     -118.893 
0.000461709      17.6143     -119.039 
0.00113984      10.5394     -123.389 
0.000463495      15.0370     -125.117 
0.000812726      19.3970     -128.406 
0.00164154      23.0665     -131.221 
0.00208463      9.47549     -134.572 
0.000457281      15.3317     -119.073 
0.000457846      18.4358     -118.511 
0.000457863      6.89384     -145.042 
0.000456778      14.4935     -128.135 
0.000455540      12.2626     -118.760 
0.00157511      5.33385     -149.589 
0.00164079      7.95880     -110.598 
0.000454690      20.7124     -122.079 
0.000750289      26.1400     -126.914 
0.000451334      13.5023     -127.931 
0.000452347      29.0203     -126.593 
0.000450470      17.8405     -126.452 
0.000645457      22.9302     -131.021 
0.000451532      19.7059     -117.996 
0.000449262      18.6393     -128.684 
0.00165730      24.0687     -130.872 
0.000879131      8.80696     -136.610 
0.000449331      18.9178     -117.039 
0.000447767      7.52928     -120.311 
0.000447879      12.7801     -127.049 
0.00229643      14.4500     -118.072 
0.000449022      20.1242     -128.037 
0.000446217      5.76563     -133.243 
0.000445506      18.3386     -119.570 
0.000868978      13.8070     -118.793 
0.000444065      15.3594     -121.827 
0.000441481      19.1307     -126.391 
0.000441035      16.4043     -121.413 
0.000867676      19.6825     -117.867 
0.00108934      7.94512     -130.406 
0.000825534      11.5907     -126.227 
0.000440370      17.5620     -118.389 
0.000440902      23.1009     -126.374 
0.000438178      14.4150     -128.380 
0.000438691      6.62873     -146.070 
0.000437270      13.2412     -117.920 
0.000857105      19.3890     -128.614 
0.00112380      9.48393     -120.757 
0.000436773      18.4923     -116.496 
0.00125566      23.8940     -123.391 
0.000847650      17.7706     -126.419 
0.000436601      12.6335     -123.376 
0.000434370      7.48949     -122.735 
0.000853305      17.1535     -117.611 
0.000434326      21.0517     -120.707 
0.000435837      25.2490     -129.617 
0.00119999      23.9107     -133.305 
0.000432199      26.7156     -129.380 
0.000431193      7.91202     -110.726 
0.000431603      13.7755     -125.248 
0.00199374      15.3075     -118.909 
0.00122124     0.100000      90.0000 
0.00120554      12.2218     -127.854 
0.000761649      21.5618     -129.448 
0.00117657      5.31648     -148.851 
0.000430491      16.6202     -126.560 
0.000430033      20.1080     -123.848 
0.000426612      18.6003     -128.780 
0.000426780      15.0083     -124.961 
0.00121376      11.1160     -115.297 
0.00219970      10.3479     -131.082 
0.000823670      29.0101     -126.732 
0.000425220      1.76139     -145.408 
0.000425050      14.4542     -128.257 
0.000424415      25.7002     -127.093 
0.000423005      10.5766     -116.686 
0.000422531      21.1684     -122.264 
0.00137311      7.22945     -131.074 
0.000820485      18.2517     -126.085 
0.00158271      22.4201     -130.296 
0.000810871      23.9450     -133.392 
0.000422459      22.8607     -125.115 
0.000420157      18.4324     -118.164 
0.000420660      16.8596     -121.663 
0.00119530      3.21753     -122.949 
0.000420523      13.7202     -129.084 
0.00187117      18.9397     -116.836 
0.000418955      20.0848     -128.125 
0.000787681      6.86531     -145.384 
0.000418703      15.2100     -126.983 
0.000821528      24.2003     -129.214 
0.000418856      8.43282     -122.654 
0.00113558      20.3493     -120.408 
0.000415864      22.3370     -125.433 
0.000414333      12.5667     -122.489 
0.000414665      11.6947     -116.675 
0.000414263      25.9211     -129.678 
0.000413363      19.6572     -117.412 
0.000412963      6.25979     -121.278 
0.000411829      13.7467     -125.077 
0.000412160      2.16333     -123.690 
0.000411511      18.4476     -116.565 
0.000570383      21.5936     -129.551 
0.000410655      19.1103     -118.778 
0.00155475      14.4853     -128.413 
0.00266000      6.67027     -146.310 
0.000409152      8.79005     -115.253 
0.000409106      17.8530     -121.019 
0.000409657      23.1325     -124.343 
0.000409427      24.0157     -133.397 
0.000780609      19.3499     -128.706 
0.000789753      17.0860     -117.540 
0.000405786      13.1766     -118.315 
0.000751961      19.2066     -123.856 
0.000404136      26.7474     -129.463 
0.000693604      10.5670     -123.615 
0.00144792      15.4910     -126.204 
0.000779662      5.76823     -132.541 
0.00113499      6.91158     -121.390 
0.000403064      14.2977     -118.626 
0.000402104      6.30258     -148.958 
0.000402063      18.6317     -128.900 
0.00409457      17.5332     -117.515 
0.000404330      13.7518     -129.245 
0.000786643      9.60482     -130.990 
0.00225351      18.9172     -116.701 
0.000399285      23.2900     -126.796 
0.000398856      7.50417     -119.982 
0.00185319      1.72047     -144.462 
0.000777102      8.84336     -136.833 
0.000742780      19.6113     -117.153 
0.000398595      12.6611     -123.565 
0.00110763      8.25303     -117.807 
0.000741012      16.2304     -126.482 
0.000396709      21.3412     -128.723 
0.000395929      18.3919     -118.586 
0.000763449      17.1086     -121.739 
0.000394610      7.84873     -140.428 
0.000774344      19.8829     -119.530 
0.00114422      20.1157     -128.237 
0.00141270      12.8067     -119.467 
0.000393656      5.36889     -122.062 
0.000394482      20.7924     -122.429 
0.00105210      24.2800     -126.964 
0.00113833      13.7835     -129.406 
0.00114363      22.2972     -121.801 
0.00100356      6.86222     -133.229 
0.00133231      19.3812     -128.821 
0.00112927      6.93488     -145.279 
0.00189721      10.2343     -123.845 
0.00167975      19.1788     -123.731 
0.000390550      25.0697     -129.659 
0.00105687      23.2840     -123.349 
0.000390284      2.41868     -119.745 
0.000387323      7.46257     -122.412 
0.000388482      13.7830     -118.610 
0.000389131      18.2654     -120.426 
0.000386709      18.5614     -128.877 
0.000737752      27.0574     -128.924 
0.00113289      19.5880     -116.696 
0.00134345      17.4889     -117.591 
0.000750992      13.3065     -117.528 
0.000716280      21.0262     -120.590 
0.00142913      7.94135     -110.260 
0.000382025      23.8666     -123.291 
0.00198204      15.3273     -118.655 
0.000382441      9.34679     -123.435 
0.000383661      12.9859     -128.591 
0.000380967      11.6501     -116.235 
0.000381861      21.3725     -128.827 
0.000379785      29.3130     -126.049 
0.00149087      1.61941     -171.119 
0.000379202      5.67671     -121.310 
0.00135494      12.8503     -119.358 
0.000377784      17.8108     -126.323 
0.00102441      23.8400     -133.300 
0.000377682      22.3660     -121.842 
0.000377939      18.3680     -118.449 
0.000376550      24.2075     -129.048 
0.000376144      7.51166     -120.833 
0.000376976      16.1026     -122.703 
0.000757152      22.5229     -130.408 
0.000375344      12.6061     -123.186 
0.000375279      18.5928     -128.997 
0.00172445      29.0400     -126.811 
0.00175742      24.3101     -127.058 
0.00276661      7.97763     -130.679 
0.000372014      4.11005     -126.591 
0.000371833      14.9359     -124.222 
0.000372131      13.7591     -118.428 
0.00211414      17.9308     -121.430 
0.000372424      23.0783     -124.585 
0.000371703      18.2908     -120.561 
0.000370043      10.5991     -116.323 
0.00132363      11.0947     -115.064 
0.000368364      26.7407     -129.614 
0.000998820      22.3397     -121.734 
0.00427476      1.23491     -158.629 
0.00105488      19.0906     -118.982 
0.000531058      21.6255     -129.653 
0.00107305      6.23398     -120.885 
0.000671182      15.5206     -126.353 
0.000661987      6.32851     -148.570 
0.000366560      8.16241     -117.350 
0.000795839      11.3795     -121.525 
0.000397576      17.7812     -126.193 
0.000396045      9.45952     -117.378 
0.000395301      30.0101     -126.736 
0.000728595      18.3883     -118.237 
0.000393633      14.8385     -123.315 
0.00412193      8.87989     -137.054 
0.00141541      9.72947     -115.248 
0.000388486      23.3802     -127.090 
0.00108305      16.8003     -126.529 
0.000388374      19.9511     -119.585 
0.000383618      17.2518     -126.040 
0.000383524      10.5770     -116.081 
0.000635655      17.5101     -117.370 
0.00149508      20.7790     -128.552 
0.000380504      18.3854     -117.889 
0.000379179      24.1682     -128.364 
0.000379205      22.8444     -124.838 
0.00106918     0.111803      116.565 
0.000376329      12.3548     -119.055 
0.00140916      23.8810     -123.124 
0.00143177      23.7715     -133.125 
0.000727399      12.2920     -127.895 
0.000372241      19.9324     -119.781 
0.000372233      21.7859     -130.159 
0.00104614      18.3805     -116.495 
0.000370107      18.1819     -126.051 
0.000963908      25.6701     -127.004 
0.00139524      17.0417     -117.618 
0.000371101      24.1671     -131.141 
0.000719185      21.0692     -120.521 
0.000959306      14.8661     -123.476 
0.000368143      11.6281     -116.014 
0.000655423      8.01031     -130.950 
0.00189982      22.4358     -125.567 
0.000367914      18.4911     -128.853 
0.000368574      12.4251     -121.003 
0.00642615     0.447214     -63.4349 
0.000982770      18.3015     -119.997 
0.000365888      23.7635     -131.674 
0.000716394      9.60013     -131.411 
0.00189994      17.5546     -117.295 
0.000364208      14.1648     -125.373 
0.000364575      8.60959     -115.821 
0.000364232      23.0500     -124.483 
0.000697107      5.31648     -121.149 
0.000362469      19.4362     -128.315 
0.000362606      12.8939     -119.249 
0.000362963      9.29906     -134.346 
0.000361896      25.3513     -129.719 
0.00195213      7.35017     -142.740 
0.00100010      9.36122     -123.011 
0.000693873      20.4116     -119.014 
0.000357654      8.40595     -122.367 
0.000357901      22.4906     -130.311 
0.000357194      14.3265     -119.249 
0.000356368      24.0361     -128.157 
0.000356404      18.2321     -121.772 
0.000703976      13.8153     -129.567 
0.00104014      18.5225     -128.974 
0.000356241      12.3504     -118.536 
0.000356024      7.93883     -115.758 
0.000354917      15.4212     -126.164 
-0.00249505      31.6333     -124.243 
0.000354110      21.7477     -130.244 
0.000953562      11.0283     -114.938 
0.00103106      22.3134     -121.624 
0.000352644      17.7409     -126.289 
0.000352194      13.7181     -124.906 
0.00273927      20.1467     -128.349 
0.000350641      23.7967     -131.764 
0.000351514      1.57877     -169.046 
0.000351231      19.8890     -119.852 
0.000350437      8.35464     -137.911 
0.000351075      14.5245     -128.290 
0.000689781      13.2834     -117.337 
0.000864604      5.40231     -149.400 
0.000649417      23.4804     -127.212 
0.000349278      18.2585     -121.906 
0.000347261      14.8111     -123.154 
0.00320339      3.19061     -122.196 
0.00164606      16.4619     -117.888 
0.000347291      8.42526     -132.114 
0.000347126      6.71193     -146.547 
0.000347237      7.53741     -121.159 
0.000347246      18.4088     -118.027 
0.000985569      30.0400     -126.813 
0.000676939      12.4604     -121.713 
0.000346204      24.9993     -129.644 
0.00100738      9.36977     -134.351 
0.000671109      21.4353     -129.036 
0.000342326      19.3109     -128.799 
0.000918411      2.18002     -126.607 
0.000342764      11.5846     -115.570 
0.000342356      17.6710     -126.254 
0.000657926      25.4537     -129.820 
0.00152331      18.3162     -120.696 
0.00127703      14.5164     -128.567 
0.000664043      24.2048     -131.063 
0.000640314      19.2481     -123.773 
0.000339257      19.9076     -119.656 
0.000339568      21.6461     -131.348 
0.00183856      11.0736     -114.829 
0.000337831      22.9550     -124.798 
0.000650516      25.9851     -129.848 
0.00184564      12.2526     -128.039 
0.00122868      6.73962     -146.192 
0.000337379      14.3022     -119.074 
0.000336673      13.8472     -129.726 
0.000337043      9.63769     -131.214 
0.000638676      7.89446     -110.386 
0.00199406      18.0257     -121.618 
0.000335076      14.1938     -125.538 
0.000335064      24.1290     -128.437 
0.000336164      21.3638     -131.299 
0.00126270      19.5659     -116.238 
0.00273403      22.3173     -130.184 
0.000333593      26.7726     -129.696 
0.00309312      30.5267     -125.669 
0.000332553      24.0282     -132.554 
0.000332966      15.4616     -126.055 
0.000629727      23.2422     -123.417 
0.000331553      20.0530     -124.126 
0.00115635      1.64012     -142.431 
0.000328880      14.8937     -123.637 
0.000637006      8.27647     -118.113 
0.000649964      13.8792     -129.885 
0.000327768      10.6001     -115.719 
0.000328152      17.6415     -126.123 
0.000647153      18.5540     -129.094 
0.00191750      17.5121     -117.736 
0.000935394      7.54719     -122.005 
0.00320509      14.4707     -117.805 
0.000745521      6.76757     -145.840 
0.00119595      16.5905     -126.421 
0.00110536      18.3338     -120.481 
0.000324624      13.2606     -117.145 
0.000321619      4.29564     -140.194 
0.000321208      23.0088     -124.553 
0.000320432      24.2463     -128.974 
0.000321367      7.87464     -139.635 
0.00585677      1.52971     -168.690 
0.000320179      19.9573     -119.905 
0.000924650      21.3263     -131.388 
0.000319841      17.2047     -125.538 
0.000630716      11.6297     -115.463 
0.000320065      7.91723     -115.432 
0.000318882      12.4868     -121.908 
0.000318536      5.51385     -120.518 
0.000319102      9.61691     -134.579 
0.00144875      21.4984     -129.243 
0.000319109      26.8045     -129.778 
0.000905524      24.0650     -132.474 
0.000316761      17.1249     -121.509 
0.000316473      21.0439     -120.403 
0.00168885      10.3103     -131.264 
0.000621576      23.8537     -123.024 
0.000625141      13.9113     -130.043 
0.000315904      17.4471     -118.034 
0.000908209      22.3560     -121.557 
0.000582930      16.7304     -126.493 
0.00146287      18.3647     -118.100 
0.000315324      14.9797     -124.804 
0.000312388      27.9016     -126.254 
0.000515616     0.838153      17.3540 
0.000312645      13.3051     -117.047 
0.000311796      21.7166     -131.360 
0.000310625      5.24786     -120.964 
0.00138691      24.3403     -127.152 
0.00240581      7.92417     -109.921 
0.000310015      9.26418     -134.125 
0.000310538      17.7006     -126.384 
0.000607267      23.8743     -133.388 
0.000309823      18.4836     -129.071 
0.000310629      12.4977     -122.418 
0.000311616      8.84590     -137.291 
0.00196511      24.4093     -122.876 
0.000308145      24.1720     -130.974 
0.000580522      7.31044     -142.503 
0.00230793      20.4553     -118.946 
0.000495649      9.63328     -131.634 
0.00111582      12.8749     -119.552 
0.000601640     0.141421      135.000 
0.000306103      16.2137     -122.661 
0.000533037      22.9961     -124.727 
0.00188633      16.9299     -117.625 
0.000575805      4.08044     -126.027 
0.000304990      18.3033     -125.774 
0.00134266      19.5439     -116.106 
0.000820746      8.44822     -122.185 
0.000305628      19.3423     -128.914 
0.000304924      24.2149     -128.882 
0.000305454      10.5812     -123.240 
0.000598477      7.91281     -139.870 
0.000869906      25.3833     -129.806 
0.000303412      19.9822     -120.029 
0.000303467      9.58188     -134.366 
0.000302716      13.8731     -130.176 
0.000302381      13.2824     -116.854 
0.000302189      26.8365     -129.860 
0.000568538      6.16543     -120.725 
0.000301518      16.5061     -117.807 
0.000300465      18.5152     -129.191 
0.000547574      16.6604     -126.457 
0.000302055      21.0008     -120.472 
0.000299040      12.5246     -122.612 
0.000564870      26.9708     -127.316 
0.00109522      17.4678     -117.812 
0.000297526      17.7914     -127.578 
0.000297632      22.9352     -130.845 
0.000296159      24.3023     -129.323 
0.00160818      9.65259     -134.370 
0.000586501      13.9435     -130.200 
0.000294854      13.8749     -118.874 
0.000294402      24.0988     -132.562 
0.000294977      20.3571     -120.722 
0.000565957      15.3033     -118.491 
0.000561347      15.5609     -126.244 
0.000293053      5.44541     -120.332 
0.000292852      22.9393     -124.521 
0.000293231      12.1643     -116.354 
0.000293250      18.5855     -129.213 
0.000835768      16.4177     -117.970 
0.000294128      5.37703     -149.859 
0.00133552      30.0700     -126.889 
0.00108483      21.7497     -131.459 
0.000291659      27.0888     -129.007 
0.000291735      11.6083     -115.241 
0.000291232      17.2454     -125.441 
0.000550134      6.88567     -121.035 
0.00172467      22.4649     -125.671 
0.000575375      13.2599     -116.662 
0.00159671      14.5086     -128.845 
0.000569018      8.30015     -118.418 
0.000289548      9.67070     -131.437 
0.00132273      1.73349     -146.768 
0.000565650      12.5516     -122.804 
0.000289215     0.921954      12.5288 
0.000518012      8.28402     -137.936 
0.000287642      24.1392     -130.884 
0.000561740      17.8832     -127.959 
0.00205074      18.8948     -116.565 
0.000824260      19.9390     -120.101 
0.00104948      23.7350     -133.207 
0.000287855      16.4507     -126.347 
0.00105961      26.8625     -130.092 
0.00153201      16.3971     -118.206 
0.000817257      21.0186     -120.286 
0.000562240      27.8613     -126.315 
0.00285284      2.96985     -135.000 
0.000285949      9.33488     -134.132 
0.000564871      23.8265     -122.923 
0.00166681      21.2557     -131.376 
0.00199814      4.06356     -124.472 
0.00109769      18.5468     -129.311 
0.000284383      9.45846     -120.496 
0.000818295      13.9759     -130.357 
0.000284238      22.3726     -121.381 
0.000285312      22.9059     -129.597 
0.000283346      6.02080     -122.106 
0.000540642      29.0700     -126.890 
0.000284207      19.3738     -129.029 
0.000282331      24.2778     -129.065 
0.000281841      23.2005     -123.485 
0.000282177      15.5314     -126.095 
0.000515613      9.66657     -131.855 
0.000281065      4.87083     -125.811 
0.00105622     0.180278      123.690 
-0.000280888      23.5878     -118.901 
0.000497673      10.5785     -115.475 
0.000280024      13.8673     -120.078 
0.000279266      1.06066      8.13010 
0.000279265      17.5129     -125.823 
0.000279408      12.1220     -115.402 
0.000803696      13.9054     -130.333 
0.000537893      7.95110     -140.102 
0.00334052      12.8314     -119.662 
0.000959322      24.1357     -132.481 
0.000278544      22.8994     -129.774 
0.000278436      7.53608     -117.245 
0.000520584      14.9229     -124.489 
0.000277428      22.3893     -121.205 
-0.000982514      17.4655     -112.380 
0.000275433      26.0172     -129.932 
0.000274733      2.39426     -118.706 
0.000275140      13.9679     -124.942 
0.000910980      9.70824     -114.981 
0.00207754      11.0369     -130.038 
0.00385192      19.5451     -115.778 
0.000539863      19.4126     -128.936 
0.000274030      24.2425     -130.986 
0.000275067      14.5476     -128.721 
0.00191610      11.0527     -114.594 
0.000274231      22.1434     -121.896 
0.000539931      13.2375     -116.468 
0.000510757      6.82807     -132.923 
0.000274319      19.2204     -123.649 
0.000272535      22.9676     -124.624 
0.000496301      16.1841     -123.150 
0.000272029      5.42033     -119.876 
0.000271146      12.1459     -115.088 
0.000523939      23.7008     -133.119 
0.00229402      19.9641     -120.225 
-0.00155047      1.05000     -180.000 
0.000499890      23.2994     -121.575 
0.000520937      21.4668     -129.139 
0.000467889      17.2572     -125.210 
0.000516740      7.57380     -122.326 
0.000269828      11.5871     -115.017 
0.000763296      12.5918     -123.501 
0.000782955      26.8947     -130.174 
0.000268641      9.12414     -133.668 
0.000518352      25.6400     -126.915 
0.00100107      12.2834     -128.223 
0.00144307      25.4154     -129.892 
0.000529054      22.4063     -121.030 
0.00433044      18.3412     -117.962 
0.000267619      23.5107     -127.309 
0.000266782      6.35472     -148.186 
0.000266931      22.8320     -130.737 
0.000505044      20.5027     -121.131 
0.00116446      17.8438     -128.058 
0.000658624      17.9831     -121.701 
0.000511347      24.3340     -129.414 
0.000265156      16.9068     -117.474 
0.00109374      8.91656     -137.272 
0.00102310      12.1248     -114.874 
-0.0161665      1.01119     -98.5308 
0.000637276      23.0895     -123.518 
0.000971331      20.9502     -120.237 
0.000508454      20.1075     -128.437 
0.000511872      22.9314     -129.870 
0.00137496      24.1666     -132.736 
0.00483994     0.886002      16.3895 
0.000758408      15.3473     -118.402 
0.000497294      16.4211     -126.207 
0.000261454      12.7500     -126.870 
0.000486132      14.9101     -124.756 
0.000509279      21.2888     -131.477 
0.000259499      18.0519     -121.753 
0.000881251      23.2568     -121.640 
0.000502697      13.9378     -130.490 
0.000260026      11.5660     -114.792 
0.000259999      7.87210     -115.589 
0.000258875      17.2164     -125.306 
0.000900827      2.97069     -133.636 
0.000976052      1.31244     -162.255 
0.00117891      4.84175     -125.331 
0.000258184      17.8131     -127.931 
0.000724013      27.8210     -126.376 
0.000325412      16.3568     -118.680 
0.000496945      19.4441     -129.051 
0.000257578      23.8144     -122.656 
0.000257098      9.08969     -133.440 
0.000507146      24.2753     -131.075 
-0.000496046      23.6120     -119.007 
0.000690562      16.5609     -126.282 
0.000488229      27.1203     -129.089 
0.000500750      13.2153     -116.274 
0.000704963      16.8625     -117.553 
0.000255652      9.37617     -122.588 
0.000738643      14.0083     -130.513 
0.000255322      13.8423     -119.899 
0.000255035      22.4153     -121.314 
-0.00179092      30.7471     -124.465 
0.000253522      15.5539     -125.580 
0.000253772      19.1510     -123.607 
0.000253776      5.26545     -120.217 
0.000485943      23.1312     -123.450 
0.00170251      17.8747     -128.184 
0.000669589      5.87580     -132.241 
0.000704053      8.37869     -120.084 
0.000743304      18.5786     -129.430 
0.000251340      22.5074     -124.043 
0.000484649      19.5219     -115.974 
0.000250345      16.1717     -122.757 
0.000250720      7.51332     -116.906 
0.000717475      11.5451     -114.567 
0.000249125      27.0012     -127.400 
0.000248877      20.5286     -121.251 
0.000248197      23.7874     -122.554 
0.000388672      19.4053     -129.144 
0.000248225      15.3794     -123.328 
0.00236243      20.7018     -132.553 
0.000248121      20.0268     -124.523 
0.000488459      1.60078     -141.340 
0.000482010      12.7602     -126.556 
0.000483960      26.0815     -130.101 
0.00370528      16.3329     -118.526 
0.000245681      22.9110     -124.418 
0.000246317      17.5422     -125.955 
0.00480645      24.4513     -122.813 
0.000246457      6.12801     -111.541 
0.000245722      22.0482     -121.744 
0.000851852      27.1517     -126.237 
0.000462414      22.4492     -120.964 
0.000478071      8.97566     -113.995 
-0.00503505      1.00000     -180.000 
0.000699158      22.9635     -129.965 
0.000243813      6.60095     -146.430 
0.000452940      21.3650     -129.016 
0.000685695      6.90308     -120.466 
0.000242660      2.43824     -118.142 
0.000697355      10.1928     -124.002 
0.000242010      24.2005     -132.823 
0.000469379      17.1876     -125.170 
0.000241712      9.19484     -133.678 
0.00177542      7.87718     -110.045 
0.000469828      26.9270     -130.255 
0.000240760      15.5718     -125.987 
0.000888308      16.3531     -118.289 
0.00248211     0.212132      135.000 
0.000687642      10.1944     -132.217 
0.000471359      13.9703     -130.646 
0.000239082      12.1038     -114.659 
0.00193598      5.06582     -131.399 
0.000239525      23.8036     -133.383 
0.000473902      22.4321     -121.139 
0.00427071      6.10983     -111.105 
0.000239013      18.1346     -125.574 
0.000238546      9.65363     -133.951 
0.000238922      13.8175     -119.719 
0.000237814      13.1933     -116.080 
0.000872943      19.1234     -123.482 
0.000454613      11.6400     -126.968 
0.000457040      7.98952     -140.332 
0.00108114      21.7828     -131.557 
0.000237674      23.7453     -122.619 
0.000237161      10.6024     -115.115 
0.000236267      26.9593     -130.336 
0.00226629      28.2511     -126.363 
0.000465597      24.4361     -131.682 
0.000859431      9.16038     -133.452 
0.000419467      15.3677     -118.149 
0.000235105      20.1778     -128.460 
0.000684995      18.9619     -116.633 
0.000784933      27.1113     -126.299 
0.00228860      19.4369     -129.258 
0.000896767      14.5400     -128.998 
0.000234539      12.1493     -114.561 
0.000455880      23.7606     -122.453 
0.00169265      18.6103     -129.549 
0.000233923      15.5831     -125.730 
0.000648980      31.1731     -126.061 
0.000442666      5.30872     -119.946 
0.000870536      24.3005     -127.224 
0.000233648      8.39181     -131.860 
0.000231371      22.4660     -124.114 
0.000231059      13.2382     -115.984 
0.000230451      21.5301     -129.346 
-0.00147161      2.45051     -178.831 
0.000659424      30.1000     -126.965 
0.000446101      18.3418     -120.830 
0.000371690      15.4345     -123.639 
0.000229644      14.1931     -130.142 
0.00296438      3.16425     -121.430 
0.000634266      29.1000     -126.968 
0.000229446      12.6194     -123.690 
0.00226223      22.4749     -121.073 
0.000229000      19.1651     -123.400 
0.000228638      13.7713     -121.035 
0.00107529      9.61769     -134.157 
0.000228697      20.6233     -121.416 
0.000228724      16.5313     -126.142 
0.000826286      25.6000     -126.982 
0.00453212      13.3711     -133.182 
0.00169013      12.1286     -114.346 
0.000227416      8.46419     -121.718 
0.000227785      24.2852     -128.899 
0.00126219      17.9569     -121.566 
0.00138460      21.2182     -131.465 
0.000651948      15.4118     -118.062 
0.000310381      13.6679     -129.806 
0.000226198      13.1714     -115.884 
0.000225712      24.2149     -130.730 
0.00254535      1.69189     -145.840 
0.000632237      20.2169     -128.372 
0.000428736      21.3965     -129.120 
0.000223387      29.2250     -125.811 
0.000222914      7.61610     -122.125 
0.000223265      12.2753     -128.550 
0.000430057      22.4580     -121.248 
0.000538248      13.7000     -129.966 
0.000594122      24.1695     -132.569 
0.000434144      13.7874     -119.075 
0.000954150      18.3206     -118.174 
0.000222645      27.1131     -129.237 
0.000222079      21.0623     -121.804 
0.000424865      6.38122     -147.804 
0.000436814      15.5657     -125.324 
0.000220626      12.6620     -124.380 
0.000220869      8.95545     -113.703 
0.000220595      7.53558     -116.395 
0.000220856      24.2205     -134.247 
0.000220930      22.7615     -130.724 
0.000436170      26.9537     -130.486 
0.00411435      10.1912     -132.614 
0.000219928      14.7182     -122.232 
0.000605756      14.1493     -130.557 
0.00432424      20.7356     -132.655 
0.000435069      13.1496     -115.688 
0.000220049      2.41506     -117.096 
0.000219461      23.0619     -123.414 
0.000665206      20.4769     -121.012 
0.000218099      24.4694     -131.770 
0.000218223      8.01561     -130.446 
0.00228837      23.0279     -130.156 
0.000608595      20.9935     -120.168 
0.000216861      13.9324     -130.780 
0.000417354      5.29079     -149.315 
0.000216251      13.7545     -121.321 
0.000619204      27.1448     -129.319 
0.00233053      1.36473     -118.443 
0.000214650      11.5244     -114.341 
0.000215041      22.4794     -123.937 
0.00104210      20.0073     -120.153 
0.000410815      23.5986     -132.853 
0.000805053      10.1574     -132.406 
0.000214742      17.2861     -125.345 
0.000624478      23.7338     -122.351 
-0.000214654      23.6363     -119.113 
0.000499569      15.4325     -117.810 
0.000950221      27.7808     -126.437 
0.000214409      21.8062     -121.212 
0.00258714      18.9395     -116.497 
0.00190247     0.514782     -60.9454 
0.000213469      14.4918     -117.538 
0.000213702      13.6360     -129.644 
0.000420370      9.58293     -133.943 
0.000616675      7.98326     -130.173 
0.00466473      12.2442     -128.367 
0.000212695      11.0982     -114.487 
0.000212153      24.2197     -134.415 
0.000211571      10.6087     -123.465 
0.000211042      14.8977     -125.024 
0.000902608      20.0552     -124.641 
0.000210693      8.21340     -137.961 
0.000210687      24.5028     -131.857 
0.000612033      16.8856     -117.703 
0.000610718      9.00125     -113.575 
0.00114749      10.1649     -123.768 
0.00149784      24.4242     -122.714 
0.000411757      26.9862     -130.567 
0.000621742     0.471699     -57.9946 
0.000413125      12.6752     -124.066 
0.000209058      23.0246     -124.829 
0.000598215      15.5181     -124.100 
0.000209414      6.75740     -132.901 
0.000209058      24.2616     -128.641 
0.000444018      12.8562     -119.855 
0.00142435      19.4686     -129.372 
0.000208681      24.2033     -132.656 
0.000208591      8.34820     -119.021 
0.000462525      22.9957     -130.061 
0.000569311      21.0785     -121.616 
0.000946337      14.5715     -129.151 
0.000407809      13.1280     -115.491 
0.000542207      17.4912     -117.957 
0.000460371      15.4768     -117.724 
0.000207201      26.1137     -130.185 
0.000207021      14.1143     -133.134 
0.000785138      4.81300     -124.846 
0.000926197      6.08153     -111.714 
0.000206087      8.47496     -122.471 
0.000754984      19.1377     -123.275 
0.000206782      15.5946     -125.474 
0.000206111      25.4474     -129.979 
0.000397107      23.5307     -132.675 
0.000205614      16.1697     -123.395 
0.000809820      13.7379     -121.608 
0.000205569      22.4380     -124.009 
0.000205453      6.87786     -120.107 
0.000205161      13.8998     -130.624 
0.000204489      11.5039     -114.114 
0.000204512      17.3848     -125.519 
0.000392444      14.5328     -129.276 
0.000401358      24.5696     -132.031 
0.000203209      13.0614     -115.388 
0.000579765      14.1873     -130.426 
0.000202551      8.02808     -140.560 
0.000543087      11.6702     -127.164 
0.000395696      24.3254     -134.500 
0.000200491      7.46860     -116.222 
0.00314192      14.0778     -133.273 
0.000200945      8.39598     -131.379 
0.000948891      22.4238     -123.726 
0.000395919      13.7437     -119.176 
0.000199802      29.2364     -125.674 
0.00157960      23.0661     -130.076 
0.000199630      21.6860     -120.941 
0.000199361      14.5150     -117.713 
0.000199644      8.42926     -120.672 
0.000386742      23.0657     -124.758 
0.000570424      13.5656     -129.616 
0.000198476      21.3022     -128.807 
0.000198804      16.3090     -118.372 
0.00141146      8.87764     -136.597 
0.000916838      30.0902     -127.098 
0.000561047      26.2839     -133.073 
0.000565882      19.9893     -120.349 
0.000358146      18.2989     -120.910 
0.00320312      1.34164     -116.565 
0.000196061      13.1732     -115.398 
0.000196093      14.0029     -130.801 
0.000852257      27.0461     -130.877 
0.000568141      6.89638     -119.539 
0.000654536      15.5210     -117.638 
0.000542465      25.3770     -129.965 
0.00132281      12.7032     -124.253 
0.000382027      21.6603     -120.828 
0.000670489      10.5571     -115.230 
0.000194350      8.59069     -114.775 
0.000193684      14.8534     -124.439 
0.00302926      7.46006     -142.900 
0.000379592      23.1037     -123.346 
0.00597124      1.34629     -111.801 
0.000732857      23.7184     -122.518 
0.000193348      27.0789     -130.957 
0.000192877      4.82597     -124.019 
0.000192606      11.4583     -114.216 
0.000566083      7.86018     -109.703 
0.000192488      10.1205     -132.597 
0.000192305      24.3482     -129.082 
0.000192590      8.32121     -138.166 
0.000519903      27.7601     -128.418 
0.000560446      21.3335     -128.911 
0.000357565      14.4475     -117.629 
0.00114283      28.2808     -126.444 
0.000191944      4.33417     -140.618 
0.000192085      13.1066     -115.294 
0.000192016      17.1588     -125.033 
-0.00286901      2.62774     -158.806 
0.000379422      15.5653     -117.553 
0.000191028      8.49058     -122.005 
0.00170582      12.1537     -114.034 
0.000373738      7.95110     -129.898 
0.000190882      9.68762     -134.582 
0.000190710      24.6031     -132.117 
0.000364572      16.9532     -117.774 
0.000366433      26.1460     -130.269 
0.000539558      9.02732     -113.157 
0.000985215      16.2890     -118.610 
0.000189151      24.2703     -127.130 
0.00184408      11.1190     -114.721 
0.000614127      20.4512     -120.892 
0.000853180      6.80827     -113.364 
0.000895251      27.1765     -129.401 
0.000189140      13.0400     -115.189 
0.000188565      20.7386     -132.460 
0.00209393      27.1268     -131.712 
0.00105196      24.3605     -134.584 
0.000802220      19.5234     -115.646 
0.000187480      7.39003     -142.975 
0.000187971      20.8102     -128.660 
0.000353647      8.39717     -119.618 
0.000186895      8.05373     -130.215 
0.000187439      15.5368     -125.173 
0.000186679      18.6422     -129.668 
0.000360718      13.7194     -118.994 
0.000530095      23.0339     -129.981 
0.000364904      17.0606     -124.854 
0.00122874      19.5003     -129.486 
0.000352654      29.2072     -125.595 
0.000185268      16.9089     -117.853 
0.000185542      9.65207     -134.790 
0.000535393      24.6703     -132.289 
0.000545671      13.0853     -115.096 
0.000904173      31.1437     -125.987 
0.000185699      9.04710     -113.448 
0.000538783      18.5718     -129.648 
0.000184924      12.7315     -124.439 
0.000282844      6.78859     -112.977 
0.000356969      21.1211     -121.545 
0.000183465      14.8385     -124.011 
0.000183525      5.24786     -149.036 
0.000184037      8.50191     -122.755 
0.000540201      17.8354     -128.284 
0.000183490      7.44664     -115.877 
0.000182656      16.5503     -126.524 
0.000799329      23.6916     -122.416 
0.000182985      13.7151     -118.527 
0.00135895      23.8793     -130.159 
0.00145813      19.0959     -123.357 
0.000521527      11.4379     -113.988 
0.000347586      14.6104     -129.027 
-0.0116375      1.78045     -128.157 
0.000181655      20.0325     -120.277 
0.000181434      24.6367     -132.203 
0.000181399      5.07075     -130.601 
0.00186948      13.7118     -121.430 
0.000181901      9.68736     -135.000 
0.00120715      15.6328     -117.631 
0.000181110      15.5490     -124.917 
0.000180483      22.8596     -131.009 
0.000661488      8.25061     -138.193 
0.000246905      29.0601     -127.028 
0.000180142      20.1859     -128.261 
-0.00495048     0.951315     -176.987 
0.000179728      21.1048     -121.732 
0.000180211      21.8160     -131.655 
0.000178588      23.5279     -132.847 
0.000178713      16.1973     -123.543 
0.000839580      23.0942     -124.860 
0.000178635      15.2350     -128.337 
0.000178679      8.11680     -110.556 
0.000689257      4.78461     -124.354 
0.000178924      21.6348     -120.714 
0.000511303      16.9324     -118.003 
0.000178444      22.4525     -130.394 
0.000178159      8.25969     -130.827 
0.00520178     0.250000      143.130 
0.000810064      19.1103     -123.150 
0.000348946      9.19348     -134.119 
0.000177082      22.4116     -122.981 
-0.00629506      1.23794      43.3634 
0.000335533      13.7285     -121.143 
0.000347598      8.51719     -122.291 
0.00279307     0.540833     -56.3099 
-0.000772317      30.7059     -124.518 
0.000493575      15.3883     -117.897 
0.000175120      15.5249     -125.430 
0.00186558      6.83465     -112.813 
0.000505099      13.0188     -114.990 
0.000174707      20.2562     -128.284 
0.000175135      28.3210     -126.384 
0.000174572      7.91912     -129.620 
0.000174156      8.18123     -110.761 
0.000174556      21.5408     -120.553 
0.000174475      13.5975     -129.779 
0.000173959      9.72278     -134.792 
0.000174191      5.37122     -118.951 
0.000173410      16.9910     -124.812 
0.000900442      10.1544     -132.805 
0.000779795      4.03547     -123.887 
0.000661098      13.0642     -114.898 
0.000172965      15.2270     -128.601 
0.000631980      7.79631     -109.481 
0.000172385      22.9254     -131.198 
0.000981455      17.8664     -128.409 
0.00116413      6.79577     -145.491 
0.000171545      13.7968     -130.444 
0.000336998      21.5154     -120.439 
0.000171466      7.60066     -122.645 
0.000171570      14.4265     -117.897 
0.000171252      21.1382     -128.469 
0.000170720      22.5008     -121.182 
0.000170441      15.5039     -123.690 
0.000527161      15.7003     -117.708 
0.000170486      24.4044     -129.430 
0.000330148      29.1301     -127.047 
0.000170648      25.5700     -126.892 
0.000941318      30.4569     -125.647 
0.000846189      22.4518     -123.372 
0.000336027      21.8493     -131.753 
0.000169873      17.0320     -124.716 
0.00147688      24.3956     -134.668 
0.000327747      8.19909     -111.088 
0.000168600      23.3956     -132.315 
0.000652844      18.6038     -129.766 
0.000168523      9.75807     -135.000 
0.000257281      18.3003     -118.386 
0.000482817      26.2132     -133.068 
0.000167932      5.20505     -148.753 
0.000570613      20.8492     -128.574 
0.000324766      14.2959     -130.319 
0.000167976      9.09299     -113.323 
0.000334346      8.22709     -130.564 
0.000986569      17.9725     -123.425 
0.000167571      16.6100     -126.801 
0.000167842      21.0117     -119.982 
0.000327677      24.7039     -132.375 
0.000899781      26.1783     -130.352 
0.000167741      13.5956     -116.188 
0.00140641      23.8089     -130.145 
0.000328693     0.860233      35.5377 
0.000464260      11.0635     -130.601 
0.000166560      14.6032     -121.132 
0.000474862      20.2252     -128.173 
0.000166646      15.5133     -125.688 
0.000610213      6.92116     -119.899 
0.000320805      24.7746     -132.383 
0.000765790      27.2083     -129.482 
0.000164970      17.5243     -125.595 
0.000476045      10.0955     -123.690 
0.000482291      9.07331     -113.033 
0.000164282      9.72278     -135.208 
0.000164447      13.7644     -130.285 
0.000164019      8.31941     -112.249 
0.000164067      22.4100     -123.903 
0.000568598      20.5233     -119.000 
0.000163244      15.2582     -128.748 
0.00125759      19.5469     -115.451 
0.000292674      23.3249     -132.307 
0.000313117      16.9625     -124.674 
0.000163208      6.82422     -145.146 
0.000316133      9.19266     -134.559 
0.000972972      12.7166     -123.940 
-0.00256867      31.3989     -128.859 
0.000726828      13.6953     -118.811 
0.000303886      14.7426     -124.499 
0.00106683      4.75657     -123.857 
0.000862221      25.2441     -134.679 
0.000161415      15.4902     -123.947 
0.000160976      14.5259     -129.553 
0.000736737      30.1204     -127.174 
0.000449041      8.54400     -122.574 
0.000311902      14.2578     -130.449 
0.000160196      5.09362     -148.650 
0.000902006      21.4901     -120.324 
0.000456876      27.7406     -126.498 
-0.000159561      23.6606     -119.219 
0.000316168      16.9559     -118.152 
0.00123306      21.0950     -121.430 
0.000159388      8.02153     -129.943 
-0.00126154      3.40771     -157.574 
0.000588088      13.0432     -114.698 
0.000314664      9.75833     -135.415 
0.000596747      14.4032     -117.721 
0.000158420      14.6960     -128.508 
0.000310675      16.6400     -126.939 
0.000894848      22.5178     -121.007 
0.000662694      23.0983     -130.171 
0.000309076      21.8344     -128.025 
0.000156903      21.0301     -119.796 
0.000157022      22.8925     -131.104 
0.000311164      16.9214     -124.770 
0.000969427      23.7071     -122.249 
0.000369012      22.4101     -123.442 
0.000156346      8.52907     -123.038 
0.000156597      19.1638     -128.006 
0.000450333      8.19466     -130.298 
0.000302475      27.1812     -126.322 
0.000155906      15.4762     -123.536 
0.000154981      18.8725     -116.429 
0.00411139      1.18849     -157.751 
0.000154984      14.7710     -124.658 
0.000155096      8.28206     -111.609 
0.000520451      22.9914     -131.385 
0.000154282      13.5518     -115.809 
0.000154640      13.6296     -129.940 
0.00100654      12.9978     -114.791 
0.000412673      15.7236     -117.869 
0.000153542      19.5256     -129.806 
0.000718235      24.8083     -132.468 
0.000153193      5.05099     -148.355 
0.000858034      9.13893     -113.199 
0.000152953      14.5645     -129.428 
0.000152930      7.35833     -115.346 
0.000152583      15.1879     -128.719 
0.000294514      20.1944     -128.062 
0.000991819      18.9173     -116.362 
0.000727512      18.6358     -129.884 
0.000432292      16.9795     -118.301 
0.000567338      11.4176     -113.759 
0.000151927      15.3942     -124.413 
0.000283325      21.1851     -131.364 
0.000387730      11.7100     -127.017 
0.000416574      29.1782     -125.515 
0.000150650      23.4262     -132.578 
0.00111504      17.8976     -128.535 
0.000297133      21.8454     -131.938 
0.000150931      20.0141     -124.722 
0.000290660      7.43001     -143.207 
0.000150561      9.79400     -135.621 
0.000285588      6.72625     -145.601 
0.000150347      24.4361     -129.520 
0.000711439      8.26378     -111.286 
0.000218434      15.6561     -117.793 
0.000418369      6.81542     -112.426 
0.000149432      14.9771     -128.630 
0.000149476      20.9667     -128.318 
0.000148732      14.5262     -120.626 
0.000428759      5.00849     -148.055 
0.000148445      15.4552     -125.387 
0.00149857      17.0074     -118.826 
0.000147992      7.98952     -129.668 
0.000654098      13.6617     -130.101 
0.00119070      29.0902     -127.106 
0.000291761      9.82904     -135.412 
0.000828692      12.1334     -113.819 
0.00101004      10.1234     -123.926 
0.000271770      23.2913     -132.216 
0.00157035      22.4377     -123.548 
0.000543020      14.4427     -130.085 
0.000146421      26.1767     -133.142 
0.000562995      18.2802     -118.598 
0.000145645      16.6701     -127.076 
0.000145824      14.7272     -128.660 
0.000416469      8.28794     -138.424 
0.000145474      8.55643     -123.319 
0.000145688      13.5301     -115.618 
0.000145244      16.8929     -124.631 
-0.000419671      24.8339     -136.958 
0.000144894      25.6100     -126.825 
0.000282147      26.8888     -130.324 
0.000519804      12.2362     -128.696 
0.000145039      15.4225     -124.566 
0.000522557      20.8883     -128.488 
0.000144112      19.4937     -129.693 
0.000588971      14.4045     -130.213 
0.00143486      18.3621     -117.751 
0.00102203      27.2401     -129.563 
0.000416740      16.3130     -118.765 
0.000280556      8.16241     -130.030 
0.000278993      9.19239     -135.000 
0.000142813      18.1896     -121.855 
0.000142617      15.4457     -128.428 
0.000142302      23.0908     -131.664 
0.000261137      5.22231     -120.493 
0.00104002      22.5436     -121.116 
0.000141880      13.7001     -119.278 
0.000141449      24.7715     -132.546 
0.000789430      12.2050     -128.513 
0.000141430      16.8518     -124.727 
0.000408380      26.1425     -133.062 
0.000353171      16.2451     -118.695 
0.000279289      14.8678     -128.720 
0.000140223      8.42199     -119.914 
0.000474352      20.8965     -128.296 
0.00142787      1.57003     -170.838 
0.000139830      19.0957     -119.317 
0.000139218      9.86471     -135.616 
0.000138784      24.4680     -129.611 
0.000402525      21.8789     -132.036 
0.000139228      16.6302     -127.180 
0.000139246      25.4092     -130.051 
0.00534928     0.583095     -59.0362 
0.000646434      32.8515     -128.387 
0.000669586      4.72890     -123.354 
0.000498268      27.7912     -128.499 
0.000138616      11.3157     -133.926 
0.000138924      20.6912     -131.277 
0.000740708      27.2215     -126.259 
0.000393150      7.73256     -109.255 
0.000403387      21.4649     -120.208 
0.000268096      16.9341     -124.535 
0.00117691      6.75463     -145.251 
0.000137770      23.3586     -132.397 
0.000652307      9.82980     -135.824 
0.00405301      14.0415     -133.413 
0.000265379      21.8037     -127.921 
0.000137048      15.3929     -123.742 
0.000884997      24.8421     -132.553 
0.000136565      7.33706     -114.993 
0.000135467      14.4810     -129.958 
0.000393948      18.6679     -130.002 
0.000135874      17.4953     -125.462 
0.000135427      7.96006     -123.990 
0.000261336      11.7223     -120.503 
0.00144772      27.7704     -126.581 
0.00158842      24.4308     -134.751 
0.00115987      13.5085     -115.427 
0.000135141      22.4244     -123.265 
0.00200154      8.24576     -110.963 
0.000135216      8.91403     -136.818 
0.000242945      20.9357     -128.211 
0.000135034      16.6605     -127.317 
0.000378067      14.5008     -120.456 
0.000134306      15.5301     -127.017 
0.000393902      11.2797     -134.102 
0.000134911      9.18491     -113.076 
0.000265316      20.2338     -127.974 
0.00181617      19.0684     -123.232 
0.000554668      19.5322     -129.599 
0.000933319      14.3664     -130.342 
0.000264024      14.9380     -128.750 
0.000362585      16.8645     -124.491 
-0.000900632     0.901388     -176.820 
0.000251553      8.20076     -129.806 
0.000131910      9.26499     -122.661 
0.000260058      4.96614     -147.750 
0.000485786      4.02275     -122.307 
0.000472822      9.22781     -135.220 
0.000246050      22.4536     -125.849 
0.000735373      21.4398     -120.093 
0.00130733      12.9769     -114.590 
0.000254295      6.68450     -146.904 
0.000131728      14.3800     -117.545 
-0.00336955      24.7998     -137.042 
0.000258850      8.57103     -122.856 
0.00101520      15.3236     -123.690 
0.000494185      30.8637     -127.761 
0.000255453      24.4999     -129.701 
0.000604174      26.3688     -132.310 
0.000130338      21.6895     -129.856 
0.000249989      18.6296     -130.101 
0.000129015      5.36773     -117.759 
0.000128940      10.2251     -132.820 
0.000128772      14.7144     -124.338 
0.000654394      13.6712     -118.627 
0.000245813      15.7813     -123.891 
0.00103811      2.22991     -132.274 
0.00129760      9.20462     -113.362 
0.000247338      14.8991     -128.870 
0.000490473      18.8951     -116.226 
0.000229403      20.5476     -119.122 
0.000250957      16.6909     -127.453 
0.000247512      10.5359     -114.984 
0.000127842      18.0001     -123.558 
0.000246260      26.8565     -130.243 
0.00120207      5.09902     -131.820 
0.000529207      15.5507     -127.423 
0.000249668      8.13034     -129.760 
0.00184285      13.3369     -133.025 
0.000491559      12.1592     -113.508 
0.000996927      8.32541     -138.652 
0.000203555      18.2845     -118.948 
0.000804914      16.7822     -124.684 
0.000524049      7.27066     -114.803 
0.000126131      22.4114     -124.364 
0.000126243      18.3810     -116.147 
0.000478619      20.2030     -127.863 
0.00124931      4.70160     -122.845 
0.000347889      7.98812     -124.287 
0.000676698      23.7228     -122.082 
0.000125508      20.0426     -124.840 
0.000234457      14.4755     -120.285 
0.000124965      19.7740     -131.104 
0.000125356      11.2439     -134.279 
0.000242273      26.0719     -133.057 
0.00108609      14.9694     -128.899 
0.000495336      16.8233     -124.587 
0.000124404      23.1619     -121.494 
0.000482504      17.8897     -128.760 
0.00102594      15.5885     -117.716 
0.00127614      22.5694     -121.225 
0.000123589      17.9868     -123.204 
0.000572991      4.92392     -147.440 
0.000123435      22.4829     -125.952 
-0.00598016     0.855862     -173.290 
0.000123156      20.9750     -128.127 
0.000424881      21.0690     -121.314 
0.000123248      6.94622     -120.256 
0.000645310      21.9124     -132.133 
0.000122614      26.2200     -126.782 
0.000122470      11.3719     -113.860 
0.000765550      16.9833     -118.678 
0.000681917      18.6619     -130.218 
0.000122505      8.59826     -123.136 
0.000579274      9.86572     -136.027 
0.000122128      14.3590     -117.814 
0.000224034      26.2107     -130.435 
0.000228247      23.2242     -132.033 
0.000271183      22.4794     -123.478 
0.000121373      21.7730     -127.817 
0.00158319      6.09200     -110.666 
0.000350401      21.7215     -129.958 
0.000121093      11.0911     -131.162 
0.000453503      13.0224     -114.499 
0.000448474      1.68003     -143.471 
0.000789584      11.2081     -134.458 
0.000573223      19.5255     -115.318 
0.000120675      10.1514     -124.160 
0.000344349      3.13847     -120.651 
0.000233377      30.1507     -127.250 
0.000234845      25.7238     -132.716 
0.000638792      29.1084     -125.492 
0.000119377      23.0601     -130.251 
0.000221700      20.5198     -120.940 
0.00246589      20.6989     -132.749 
0.000232076      13.6940     -130.261 
0.000232296      19.8069     -131.213 
0.000229355      24.3288     -130.499 
0.00100003      11.3518     -113.629 
0.000118685      20.9275     -128.403 
0.000218289      22.9583     -131.292 
0.000118682      21.1169     -119.661 
0.000118805      22.3965     -124.080 
0.00255530     0.403113      150.255 
0.000220593      9.22293     -122.829 
0.000118323      16.7123     -127.830 
0.000117467      6.97155     -120.611 
0.000230614      8.62569     -123.414 
0.000438657      14.3570     -117.368 
0.000228879      14.5194     -129.831 
0.000874582      9.25054     -113.239 
0.000116969      7.71622     -108.905 
0.000116836      15.9738     -118.410 
0.000765315      12.1393     -113.292 
0.000116790      16.9058     -124.395 
0.000228282      27.2787     -129.496 
0.000536970      8.16884     -129.536 
0.000457276      11.0257     -115.519 
0.000323804      24.9466     -132.644 
0.000116562      15.5416     -127.681 
0.000207009      27.1023     -131.335 
0.000344135     0.360555      146.310 
0.000854012      24.3601     -134.751 
0.000993713      32.8123     -128.442 
0.000223653      11.7478     -120.713 
0.000115274      23.1574     -131.849 
0.000324993      24.4935     -129.865 
0.000114738      18.2161     -121.989 
-0.00422947      1.06066     -98.1301 
0.000221916      14.6862     -124.177 
0.000114258      17.5360     -125.367 
0.000330506      18.8731     -116.090 
0.000305710      15.2959     -123.534 
0.000573197      26.8242     -130.161 
0.000622773      12.7446     -124.126 
0.000741603      17.9211     -128.884 
0.000289685      22.3897     -125.181 
0.000112801      11.0708     -115.408 
0.000221556      21.3348     -132.816 
0.000112548      25.9671     -132.971 
0.000112409      16.3768     -118.443 
0.000112193      32.2504     -128.327 
0.000208174      19.1396     -121.323 
0.00130402      21.8125     -127.737 
0.000734424      21.4148     -119.977 
0.000669059      7.66893     -109.026 
0.000111053      16.7431     -127.965 
0.000212569      17.9725     -124.000 
0.000219163      18.9110     -114.193 
0.000110959      9.19266     -135.441 
0.000324012      30.8944     -127.834 
0.00175056      22.6122     -121.159 
0.000502313      9.00347     -125.279 
0.000110358      16.0655     -118.639 
0.000295396      20.6156     -119.176 
0.00278461      1.36565     -113.749 
0.000907481      20.1724     -127.750 
0.000312149      16.8107     -124.824 
0.000210890      15.5443     -117.801 
0.000205603      7.36614     -131.698 
0.000110280      4.65967     -123.179 
0.000496512      19.8023     -131.417 
0.000425066      25.6899     -132.634 
0.000109766      27.0740     -131.106 
0.000109992      23.0576     -131.572 
0.000199407      11.0494     -115.174 
0.00141502      17.5317     -117.150 
0.000475277      18.7216     -124.114 
0.000109537      6.72644     -147.137 
0.000108518      5.20505     -121.247 
0.000214736      27.2720     -129.644 
0.000820212      19.5641     -129.712 
0.000108189      25.5801     -126.736 
0.000382672      22.4068     -125.463 
0.000601903      8.95335     -137.490 
0.000575651      32.2815     -128.396 
0.000404543      11.0473     -115.753 
0.000928018      26.3351     -132.230 
0.000208379      14.5132     -130.109 
0.000208850      8.65332     -123.690 
0.000558096      16.9594     -118.530 
0.000779545      9.90177     -136.228 
0.000208999      16.7739     -128.100 
0.000781436      21.7599     -129.873 
0.000106754      10.5149     -114.737 
0.000209866      17.9862     -123.778 
0.000106022      18.6936     -123.988 
0.000202765      7.01463     -120.403 
0.000301608      3.99625     -121.701 
0.000375104      9.22835     -135.659 
0.000283941      18.3831     -117.541 
0.000200840      31.1842     -125.933 
0.000204540      27.7833     -128.644 
0.000542058      14.4750     -130.236 
0.000303225      3.11328     -119.859 
0.000399891      21.3688     -132.914 
0.000104479      22.1888     -129.789 
0.000580529      13.0017     -114.298 
0.000593206      18.6942     -130.335 
0.00446007      1.14237     -156.801 
0.000279965      15.0008     -129.048 
0.000104802      24.3668     -130.423 
0.000196785      21.0431     -121.197 
0.000385534      27.2619     -126.197 
0.000482744      24.4660     -134.834 
0.000382878      11.8163     -120.797 
0.00133895      27.3105     -129.577 
0.00199610      11.1725     -134.637 
0.000376606      24.9127     -132.560 
0.000103275      18.9362     -113.993 
0.000194900      15.7535     -123.741 
0.000202122      6.76849     -147.366 
0.000386664      4.88185     -147.124 
0.000102499      30.8549     -127.891 
0.00135815      4.63249     -122.661 
0.000744795      23.7707     -130.222 
0.000977213      8.01639     -124.582 
0.000101967     0.901388      19.4400 
0.00226195     0.670820      153.435 
0.000101934      16.9189     -124.160 
0.000195282      7.29178     -115.159 
0.000488284      16.1094     -118.554 
0.000714286      7.50000     -143.130 
0.000190185      26.2500     -126.870 
0.000282578      21.3898     -119.861 
0.000985278      18.8905     -114.055 
0.000101010      16.4412     -118.124 
0.000101045      19.7693     -131.309 
-0.00349959     0.650000      112.620 
0.000479349      12.1656     -112.982 
0.000100897      30.0042     -125.915 
0.000399817      26.8832     -130.474 
0.000726259      30.8856     -127.964 
0.000366916      22.6381     -121.268 
0.000290315      18.8511     -115.953 
0.000100626      7.06576     -121.103 
0.000446258      14.4503     -120.114 
0.000196570      15.5635     -128.085 
0.00186652      2.26274     -135.000 
0.000477365      12.9562     -114.389 
-0.00136194      3.42710     -156.801 
0.000197278      23.7387     -121.916 
0.000197144      25.7605     -132.640 
0.000289035      14.3341     -117.191 
0.000285066      10.0540     -123.848 
0.000890340      21.9090     -132.318 
0.000359647      16.0416     -118.482 
9.90873e-05      27.1310     -131.563 
9.88241e-05      23.2565     -124.134 
0.00161728     0.626498     -61.3895 
9.88878e-05      16.8048     -128.234 
0.000532367      13.5537     -115.336 
9.82602e-05      10.4940     -114.489 
0.000603640      24.3993     -130.512 
0.000190969      13.6913     -118.343 
0.00119478      25.2086     -134.759 
0.000271067      9.22456     -113.647 
0.00170844      17.8822     -128.985 
0.000190638      14.6582     -124.015 
0.000705193      24.3953     -134.834 
0.000191198      17.9584     -123.646 
0.000339879      14.4368     -130.365 
0.000190160      18.2951     -119.648 
9.63736e-05      30.1412     -127.383 
9.63643e-05      15.3376     -123.431 
0.000357738      8.13711     -129.265 
0.000257296      13.7322     -130.126 
0.000364010      24.1901     -126.680 
0.000628564     0.854400      20.5560 
0.000281261      25.6560     -132.552 
-0.000711199      16.3166     -114.052 
0.000379748      22.9539     -131.468 
0.00139342      13.6677     -118.159 
0.000187781      22.1568     -129.690 
0.000277231      21.4581     -119.910 
0.000184103      12.8010     -124.497 
0.000186293      16.8358     -128.367 
0.000840358      4.67467     -122.330 
9.32050e-05      23.0671     -121.347 
9.34914e-05      23.1908     -131.941 
0.000270803      6.81065     -147.593 
9.33515e-05      24.4049     -130.347 
0.000933777      2.79732     -114.274 
9.30498e-05      17.5768     -125.272 
0.00132076      8.29247     -110.839 
0.000603024      23.7123     -121.813 
0.000181390      27.8625     -129.174 
9.25537e-05      10.0262     -123.611 
9.22001e-05      3.97020     -121.088 
9.20623e-05      12.1196     -113.074 
0.000763657      14.9305     -129.019 
0.000181754      17.9592     -124.221 
0.000430912      21.4029     -133.012 
0.000329457      15.5722     -127.827 
9.17050e-05      5.23116     -121.715 
0.000173059      19.0579     -119.726 
0.000346169      8.95670     -137.941 
0.000181034      20.7695     -132.756 
0.000730869      18.7266     -130.452 
0.000249981      24.0076     -134.409 
0.000261642      8.39598     -138.621 
9.10825e-05      8.70919     -124.237 
0.000402577      16.4385     -117.734 
0.000339702      14.3113     -117.013 
0.000168119      29.9749     -125.838 
0.000422208      29.7513     -128.449 
0.000918376      6.06321     -111.275 
0.000248599      22.9870     -131.561 
9.01875e-05      16.8776     -124.255 
0.000970935      13.3028     -132.868 
8.98947e-05      24.5255     -129.955 
0.000477119      16.9636     -118.907 
8.98114e-05      7.26722     -122.925 
8.99264e-05      25.7267     -132.558 
8.98045e-05      8.35015     -142.787 
0.000175214      16.8668     -128.501 
0.000415081      28.2215     -126.281 
0.000173154      19.1137     -121.195 
8.94768e-05      9.18096     -122.998 
0.000172408      3.95380     -122.082 
0.000729294      24.5013     -134.917 
0.000175164      23.3260     -124.167 
0.000164298      22.4243     -125.746 
0.000841159      6.78325     -144.904 
0.00130943      12.1462     -112.765 
0.000232943      8.09846     -129.489 
0.000643412      19.0558     -122.898 
0.00137234      20.1418     -127.638 
0.000169528      16.9355     -118.381 
8.83074e-05      25.6929     -132.476 
0.000169635      29.0794     -125.412 
0.000170468      10.4734     -114.240 
0.000167748      18.8293     -115.817 
0.000318749      24.0313     -132.386 
0.000172319      21.0003     -121.268 
0.000172430      8.80696     -124.592 
0.000359801      11.3060     -113.731 
0.000767293      6.78251     -113.920 
0.000173463      15.3101     -123.275 
8.71545e-05      18.1536     -121.370 
0.000334900      27.8238     -129.239 
0.000621393      24.1603     -126.585 
0.000167623      14.6303     -123.853 
8.72504e-05      23.0202     -131.654 
8.71378e-05      19.1230     -121.529 
0.000162736      18.4039     -115.939 
0.000401166      11.0242     -116.100 
0.000496549      12.9812     -114.097 
0.000249562      4.83994     -146.802 
8.65655e-05      7.09172     -121.449 
0.000163595      19.6105     -116.826 
8.62716e-05      15.6023     -129.147 
0.000869182      21.4332     -119.795 
0.000402487      12.7860     -124.001 
-0.00201626      1.01980     -11.3099 
0.000617283      18.2766     -119.862 
8.60388e-05      25.6592     -132.394 
0.000249106      19.8354     -131.526 
0.000859435      9.93793     -136.427 
0.000163122      16.8495     -124.114 
8.59826e-05      5.29245     -112.203 
0.000458918      11.8420     -121.005 
0.000153274      20.5719     -119.244 
0.000296561      31.1549     -125.858 
0.000399728      9.98461     -123.770 
0.000434935      7.22530     -114.969 
0.000247363      8.99027     -137.705 
0.000374392      3.25960     -147.529 
0.000168709      13.0269     -114.007 
0.000441936      1.61245     -172.875 
8.46158e-05      17.9446     -123.867 
0.000245623      6.85292     -147.817 
0.000405459      25.6255     -132.311 
0.000232954      16.2740     -128.137 
0.000235070      8.39002     -142.994 
8.37262e-05      14.6165     -123.418 
8.35209e-05      23.7325     -130.300 
0.000374755      19.6331     -116.957 
8.34235e-05      5.30212     -110.999 
0.000522408      5.13249     -132.236 
0.000150462      8.99806     -131.396 
8.30778e-05      17.9311     -124.089 
8.29531e-05      15.2683     -123.378 
0.000163044      23.3541     -124.268 
0.000386435      32.3125     -128.466 
0.000162376      16.8980     -128.633 
0.000448951      7.47011     -143.437 
0.000586480      28.1981     -124.817 
8.26008e-05      18.7211     -130.668 
0.000157304      16.8363     -124.351 
0.000161978      20.9744     -121.151 
0.000304154      18.7631     -124.029 
0.000309746      15.2828     -123.118 
0.000365376      27.2324     -126.112 
0.000383851      14.2886     -116.834 
8.14101e-05      12.8406     -127.405 
8.13816e-05      18.7393     -131.430 
0.000229961      8.93378     -125.202 
8.11317e-05      15.7951     -123.640 
-0.00266111     0.806226     -172.875 
0.000156704      15.6339     -129.289 
0.000732135      5.28441     -110.493 
-0.000297415      26.6140     -124.436 
0.000864122      18.7725     -131.545 
0.000225648      8.96507     -131.156 
0.000861290      18.8702     -113.916 
0.000382134      11.3318     -113.398 
0.000522742      9.23093     -112.954 
0.000151652      24.8790     -132.475 
0.000231322      21.4370     -133.110 
-0.000566723      31.4379     -128.802 
0.000293522      23.8030     -130.314 
0.000785501      25.5918     -132.229 
7.91156e-05      8.83544     -124.859 
0.000365805      23.3823     -124.370 
0.000511447      17.9179     -124.311 
0.000305793      13.0066     -113.806 
7.91664e-05      16.9395     -118.759 
0.000290281      3.92747     -121.464 
0.000217966      19.0969     -121.401 
0.000218873      27.8403     -126.602 
7.86169e-05      16.8909     -124.019 
0.000716504      29.7122     -128.509 
0.000498369      27.7851     -129.304 
0.000372612      23.7285     -121.647 
0.000289863      8.43356     -138.846 
0.000146471      12.8621     -127.895 
0.000145778      9.00278     -130.946 
0.000224834      16.9293     -128.766 
0.000153028      16.8414     -117.782 
0.000289508      26.3722     -132.157 
0.000148392      7.65278     -108.672 
0.000558502      14.3988     -130.493 
7.70142e-05      19.7980     -131.622 
0.000357839      30.9164     -128.038 
0.000223554      20.9486     -121.034 
0.000290903      12.9609     -113.895 
0.000421051      15.2555     -122.961 
0.000360525      6.86895     -148.392 
7.66318e-05      25.5885     -132.387 
0.000221314      19.0804     -121.608 
0.000773460      2.77714     -113.334 
7.65913e-05      7.22530     -123.140 
0.000142044      26.2800     -126.957 
0.000149416      17.8788     -121.156 
0.000500562      8.99389     -138.155 
7.61939e-05      9.19905     -114.057 
7.62574e-05     0.761577     -66.8014 
0.000639290      24.4306     -134.917 
0.000284927      4.79818     -146.476 
0.000423436      22.4654     -123.655 
0.000489715      27.3424     -129.658 
0.000143023      20.8573     -128.381 
0.000148885      7.20434     -114.609 
0.000144661      22.1635     -129.508 
0.000287124      14.6025     -123.690 
0.000358858     0.807775     -68.1986 
7.48073e-05      23.7830     -123.423 
0.000144476      29.0387     -125.469 
0.000142682      8.70201     -110.518 
0.000281133      19.8686     -131.634 
7.42446e-05      24.5577     -130.045 
7.40907e-05      12.7581     -123.815 
0.000483324      16.7950     -124.447 
7.36086e-05      7.39949     -131.987 
7.36916e-05      10.4073     -114.102 
0.000143486      18.7625     -115.746 
7.33477e-05      14.3283     -130.471 
0.000208002      21.4394     -132.921 
0.000211500      10.0125     -124.007 
0.000207132      26.3387     -132.076 
-0.000553178      32.5202     -127.064 
7.32948e-05      5.78813     -148.782 
7.28176e-05      12.9356     -114.187 
0.000207748      9.26418     -135.875 
0.000209338      22.3778     -125.359 
0.000140332      16.8394     -117.402 
7.26520e-05      27.1601     -131.791 
0.000345700      21.4766     -119.728 
0.000140269      15.6656     -129.431 
0.000211141      24.4318     -130.601 
0.000137146      8.10555     -128.991 
7.20195e-05      31.1143     -125.912 
0.000272668      9.80051     -126.285 
0.000139522      12.9071     -114.977 
0.000475902      14.0052     -133.553 
0.000141015      12.7997     -123.690 
7.15713e-05      14.4192     -119.498 
7.17168e-05      18.2705     -119.511 
0.000207445      11.0464     -116.913 
0.000275914      14.2885     -116.386 
0.000207989      19.0411     -123.106 
7.10007e-05      4.06971     -137.490 
7.09951e-05      16.8630     -123.879 
0.000403134      12.9865     -113.604 
0.000135498      29.9456     -125.760 
0.000271807      22.5864     -121.051 
-7.08676e-05      26.5485     -122.463 
7.10921e-05      12.8710     -127.582 
-0.000140294      1.00623     -116.565 
0.000205716      21.4735     -133.019 
7.03380e-05      24.0426     -134.494 
7.01758e-05      23.7689     -123.590 
7.01748e-05      16.7950     -117.480 
6.97656e-05      28.1919     -126.199 
6.96076e-05      18.1874     -120.937 
-0.000472591      1.02956     -119.055 
0.000135572      24.5366     -135.000 
0.000203376     0.848528      45.0000 
0.000205838      17.5535     -116.930 
0.000269278      13.2689     -132.709 
0.000134665      24.0346     -132.218 
0.000136241      8.43001     -143.198 
6.91641e-05      8.96270     -125.463 
0.000136276      16.9606     -128.897 
0.000335149      32.7732     -128.496 
0.000402393      9.97422     -136.625 
0.000135345      21.4084     -119.678 
0.000335120      9.25770     -112.548 
0.000200078     0.291548      149.036 
0.000136009      16.4596     -117.499 
0.000268900      23.7023     -121.544 
0.000135962      32.3437     -128.535 
0.000134423      20.8543     -120.870 
0.000199203      16.9878     -119.055 
0.000134933      4.03299     -137.010 
6.82315e-05      19.0482     -122.021 
6.81680e-05      16.2347     -128.246 
0.000266475      17.8433     -129.086 
0.000198375      13.6441     -117.974 
-0.000134385      3.90160     -149.162 
6.79139e-05      10.3413     -113.962 
-0.000133355      26.5217     -122.372 
6.77515e-05      12.1739     -128.329 
0.000132591      24.1305     -126.490 
6.74508e-05      20.6622     -132.843 
6.73400e-05      25.5583     -132.146 
0.000132840      12.7720     -123.503 
0.000133102      8.00391     -125.080 
6.66899e-05      22.1317     -129.408 
0.000131707      20.7328     -132.850 
6.66486e-05      24.3939     -130.678 
0.000131806      15.8824     -118.179 
6.64125e-05      27.1563     -131.940 
6.63351e-05      23.7966     -123.690 
0.000131433      19.0543     -121.479 
6.63110e-05      24.9496     -132.482 
6.62089e-05      9.97108     -124.168 
6.61483e-05      14.5890     -123.254 
6.61240e-05      23.9719     -134.493 
6.63670e-05      22.4516     -123.832 
6.63648e-05      23.8354     -130.406 
6.59130e-05      20.7891     -135.195 
6.55610e-05      16.8164     -117.251 
6.53665e-05      29.0097     -125.388 
6.54814e-05      10.2280     -132.424 
6.53264e-05      14.2661     -116.655 
6.54133e-05      12.8935     -129.493 
-0.000195554     0.570088      105.255 
6.55295e-05      8.86411     -125.124 
6.53889e-05      17.8766     -124.401 
-6.56423e-05      1.04043     -125.218 
0.000129981      6.91158     -148.610 
6.52950e-05      24.4659     -135.000 
6.47362e-05      16.9921     -129.028 
6.46492e-05      11.9106     -121.088 
6.48684e-05      19.9462     -120.422 
-6.46146e-05      32.5503     -127.134 
6.43555e-05      16.4366     -117.345 
-6.41772e-05      1.20208      45.0000 
