! Center RA: 04 18 21.27724,  Dec: +38 01 35.80018 (2000.0)
! Established model.
! Flux (Jy) Radius (mas)  Theta (deg)  Major FWHM (mas)  Axial ratio   Phi (deg) T \
! Freq (Hz)     SpecIndex
  0.653425      0.00000      0.00000 
  0.101776    0.0707107     -135.000 
 0.0412459     0.223607      63.4349 
 0.0734761     0.111803     -116.565 
 0.0712546     0.291548      59.0362 
 0.0668986     0.180278     -123.690 
  0.109987     0.335410      63.4349 
  0.102384     0.223607     -116.565 
 0.0550302     0.403113      60.2551 
0.00771391     0.670820      63.4349 
 0.0346427     0.738241      61.6992 
 0.0203912     0.806226      60.2551 
 0.0119026     0.250000     -126.870 
0.00418292     0.850000      61.9275 
0.00371920      1.09772      59.9314 
0.00338594      1.14127      61.1892 
 0.0245782     0.291548     -120.964 
 0.0124175      1.20934      60.2551 
0.00866587      1.25300      61.3895 
0.00448424      6.21631      63.2288 
0.00770195      5.76975      64.3232 
0.00606822      1.32098      60.5241 
0.00203808      6.26099      63.4349 
0.00195740      1.70000      61.9275 
0.00597609      6.28351      63.0272 
0.00353470      4.11461      64.0577 
0.00775028      4.83322      65.5560 
0.00178430      1.74428      62.7004 
0.00341966      6.32811      63.2325 
0.00331351      4.04784      64.3845 
 0.0159619     0.320156     -128.660 
0.00459902      1.81177      62.0205 
0.00305084      5.70307      64.5583 
0.00427218      6.73071      63.0543 
0.00145432      4.20476      64.6538 
0.00501518      3.84838      65.4328 
0.00134369      6.77532      63.2459 
0.00255780      1.85607      62.7447 
0.00132349      5.68177      65.0136 
0.00240115      4.31654      64.6223 
0.00315685      1.27769      59.4208 
0.00238601      7.20017      63.6129 
0.00122676      5.74826      64.7724 
0.00116986      4.81274      66.0979 
0.00220528      1.92354      62.1027 
0.00112963      6.68618      62.8601 
0.00111925      5.66083      65.4723 
0.00316155     0.694622      59.7436 
0.00107902      6.23899      62.8189 
0.00106064      4.85850      66.3369 
0.00105061      6.79798      62.8695 
0.00198970      3.78220      65.8068 
0.00103398      5.59464      65.7256 
0.00372206      7.26722      63.4349 
0.00193184      4.36177      64.9038 
0.000993768      1.96787      62.7839 
0.000983267      6.37377      62.4299 
0.000967307      4.92443      66.0375 
0.000953428      5.64026      65.9344 
0.00175806      1.72409      60.4612 
0.00233898      6.75352      62.6761 
0.00172235      5.94811      63.0042 
0.000894164      3.76198      66.5014 
0.00169989     0.250000      53.1301 
0.000884548      2.01246      63.4349 
0.000872448      5.55428      66.6660 
0.00166375      6.59735      62.4639 
0.000851590      4.95025      66.8014 
0.00236102      3.69628      66.9032 
0.000831546      4.34079      65.5014 
0.00333273      2.05730      64.0577 
0.00199093      1.16619      59.0362 
0.000789353      5.53466      67.1412 
0.00218077      7.33434      63.2603 
0.000769221      4.38634      65.7723 
0.000757665     0.583095      59.0362 
0.00128620      5.06187      66.7271 
0.00235722      1.68077      59.6209 
0.000736220      5.97097      62.5767 
0.000729393     0.212132      45.0000 
0.000715405      5.56170      67.8160 
0.00134999      4.09207      63.1219 
0.00176561      6.50884      62.0570 
0.00130293      4.43199      66.0375 
0.00127487      5.12762      66.4346 
0.000672966      3.63077      67.3194 
0.00181888      5.92663      62.3540 
0.000652380      1.23491      58.2405 
0.00171617      5.58950      68.4841 
0.000630004      7.37902      63.4349 
0.00121028      3.56546      67.7510 
0.00206304     0.250000      36.8699 
0.000618155      6.42067      61.6388 
0.00111789      6.93271      62.5109 
0.000578119      1.61245      60.2551 
0.000579223      7.42378      63.6075 
0.00248351     0.390512     -129.806 
0.000563581      4.41192      66.6309 
0.00131651      1.12361      57.7244 
0.000551509      4.07063      62.1759 
0.00103973      7.44614      63.2629 
0.00105170      3.54683      68.4986 
0.000539716      5.54301      68.2946 
0.000502662      5.29953      63.6767 
0.00172700      2.10238      64.6538 
0.000498156      4.39232      67.2296 
0.000951163      4.11825      60.9454 
0.000479429      7.00018      62.3368 
0.000476428      3.48210      68.9625 
0.000919397      5.95000      61.9275 
0.00190436     0.223607      26.5651 
0.000467718      7.46860      63.7780 
0.000455879      5.52472      68.7763 
0.000448740      3.88104      68.0615 
0.000441714      7.51349      63.9465 
0.000439118      4.97695      67.5572 
0.000437392     0.626498      61.3895 
0.000435267      6.66483      62.2815 
0.000833946      3.41760      69.4440 
0.000425827      1.74929      59.0362 
0.000424611      4.32695      67.5839 
0.000422410      7.06771      62.1659 
0.000418622      5.32189      63.1942 
0.000414048      5.81227      68.2901 
0.00145661      6.35708      60.8141 
0.000409490      4.09939      59.9951 
0.00114588     0.460977     -130.601 
0.000782450      7.53674      64.4549 
0.000394288      5.31154      67.2972 
0.000393698     0.763217      58.3925 
0.000392376      7.02353      61.9755 
0.000391864      3.13249      61.3895 
0.000720164      4.54588      60.3333 
0.000380856      3.86264      68.7495 
0.000377134      5.74739      68.5688 
0.000376631      1.54434      60.9454 
0.000677706      5.86195      61.4675 
0.000366532      4.12462      59.3936 
0.000362612     0.427200      69.4440 
0.000360197      4.37321      67.8337 
0.000359509      7.55844      64.1130 
0.000978674      3.15674      60.5928 
0.000354620      1.19269      56.9761 
0.000354611      7.09119      61.8087 
0.000353141      5.08847      67.4668 
0.000949021      3.40037      70.2328 
0.000343841      5.61805      69.1455 
0.00107090      1.84459      57.1715 
0.000339212      3.90928      69.0151 
0.00190242     0.494975     -135.000 
0.000337429      7.56059      64.9602 
0.000840288     0.832166      57.2648 
0.000330274      5.87729      68.0176 
0.000328280      7.04716      61.6166 
0.000324863      1.36473      61.5571 
0.000324154      5.32353      61.9908 
0.000321662      4.08167      59.0362 
0.000824912      2.14767      65.2249 
0.000612847      7.60592      65.1196 
0.000307446      3.95601      69.2744 
0.000582010      7.11495      61.4538 
0.000304549      5.29245      67.7965 
0.000574022      2.65707      70.2011 
0.000300296      6.44748      66.2180 
0.000809245      4.06510      58.0693 
0.000541739     0.412311      75.9638 
0.000292434      4.35460      68.4429 
0.000756522      5.85875      68.4710 
0.000540991      4.57083      59.7887 
0.000499322      6.38161      60.4222 
0.000280452      7.53608      62.7549 
0.000726434      1.40890      62.5256 
0.000276223      4.95807      68.0913 
0.000721718      6.42748      66.6258 
0.000269853      5.79418      61.6658 
0.000266404      7.69675      65.4328 
0.000494505      5.55360      69.4440 
0.000263451      3.93859      69.9547 
0.00240714     0.254951      11.3099 
0.000260350      3.18159      59.8084 
0.000849853      6.33818      60.1991 
0.000255110      7.89589      64.8954 
0.000480899      3.33654      70.7505 
0.000251829      1.15109      55.6197 
0.000487261      7.18279      61.2940 
0.000602827      5.30330      61.2602 
0.000824592      2.17313      66.9745 
0.000244590      4.22522      69.2059 
0.000242974      7.63053      65.6182 
0.00123040     0.565685     -135.000 
0.000683480      9.28238      62.0546 
0.000617103      2.64055      71.2220 
0.000234788      5.00450      68.3049 
0.000640044      3.13847      59.3493 
0.000786340      7.94119      65.0485 
0.000909945      4.59619      59.2500 
0.000419004      5.81808      61.2324 
0.000434084      7.55910      62.4180 
0.000223317      3.98560      70.2011 
0.000572085      4.04969      57.0948 
0.000211457      4.33647      69.0574 
0.000211145     0.452769      83.6598 
0.000770496      9.32658      62.1985 
0.000644000      1.87216      55.8855 
0.000204223     0.917878      60.6422 
0.000202081      7.13898      61.1013 
0.000374609      3.92173      70.6410 
0.000381216      5.79396      68.7495 
0.000805402      3.32039      71.5651 
0.000373659      5.11591      68.1986 
0.000194423      1.21037      51.7098 
0.000818006     0.602080     -131.634 
0.000346851      7.61003      65.9611 
0.000365727      6.40781      67.0362 
0.000189003      9.77203      62.9105 
0.000351481     0.450000      90.0000 
0.000355266      7.20694      60.9454 
0.000340941      2.59326      70.8664 
0.000345469      4.27200      69.4440 
0.000182508      1.34164      63.4349 
0.000178253      7.51482      62.2415 
0.000177465      3.09556      58.8775 
0.000501671      9.79400      63.3041 
0.000320688      4.00781      56.7064 
0.000169020      5.34720      61.5178 
0.000165435      5.60045      69.6236 
0.000165069      1.24197      49.8991 
0.000165084      9.30591      61.7826 
0.000426333      5.77430      60.9936 
0.00105826      9.26121      65.0952 
0.000524980      7.58238      62.0831 
0.000541916      6.34232      67.2759 
0.000157975      3.05287      58.3925 
0.000156856      6.93992      66.2052 
0.000156603      4.93964      68.6294 
0.000155885      1.30000      67.3801 
0.000153621     0.807775      68.1986 
0.000153467      6.36318      59.8084 
0.000291776      9.32966      61.5121 
0.000150671      5.77603      69.2118 
0.000150393      3.29317      59.9314 
0.000286446      3.96894      70.8803 
0.000149113      9.83870      63.4349 
0.000278639      7.96571      65.5263 
0.000146533      6.84416      62.1245 
0.000390525      2.21923      67.4794 
0.000266270      7.23136      60.5991 
0.000142989     0.854400      69.4440 
0.000378199     0.672681     -131.987 
0.000261612      9.81657      63.0434 
0.000139839      5.53624      69.9285 
0.000632427      1.23794      46.6366 
0.000555527      3.01040      57.8937 
0.000137128      9.89457      66.1551 
0.000585661     0.452769      96.3402 
0.000421787      6.32001      59.5804 
0.000934865      2.57730      71.9166 
0.000261027      10.3559      62.0740 
0.000134340      6.98570      66.3706 
0.000133778      4.98623      68.8387 
0.000804444      4.03547      56.1130 
0.000132495      1.43178      65.2249 
0.000234850      5.84059      68.9273 
0.000129371      9.35361      61.2429 
0.00101419      4.62196      58.7173 
0.000244384      9.92031      66.5360 
0.000240814      4.25470      70.0744 
0.000429717     0.824621      75.9638 
0.000320916      5.20889      68.6071 
0.000588320      8.77097      61.3895 
0.000215172      7.54404      66.1532 
0.000120587      3.90544      71.3331 
0.000693586      11.0257      64.4808 
0.000388238      3.31851      59.1843 
0.000551653      10.4001      62.2030 
0.000117321      7.01178      66.9087 
0.000117377      1.20208      73.0725 
0.000115950      5.58323      70.1046 
0.000115943      9.37777      60.9751 
0.000312668     0.680074     -126.027 
0.000419826      5.37122      61.0490 
0.000113891      7.99078      66.0011 
0.000416062      11.9867      64.2900 
0.000112283      7.60592      61.7503 
0.000212063      1.65605      61.1134 
0.000208585      6.27694      59.3493 
0.000208704      3.30492      72.3874 
0.000109455      9.40213      60.7086 
0.000622849      9.90051      66.8014 
0.000280770      7.25603      60.2551 
0.000445250      8.13465      67.2176 
0.000105865      5.73062      60.7512 
0.000437143     0.460977     -139.399 
0.000196731      3.95285      71.5651 
0.000188812      1.18849      75.3791 
0.000103502      7.08467      67.5979 
0.000654543      10.4887      58.0525 
0.000102664      6.80000      61.9275 
0.000102275      10.2813      66.8014 
0.000189226      8.66271      68.3214 
0.000168019      4.92164      69.1714 
0.000147461      9.83933      62.7839 
0.000419081      6.32317      67.6938 
0.000363970      9.42669      60.4436 
9.69667e-05      4.19076      70.4841 
0.000455885      15.1348      67.6713 
9.54185e-05      5.64734      69.8002 
9.45614e-05      1.54353      65.0952 
0.000250145      11.0242      63.8998 
9.12567e-05      5.79871      60.5615 
9.05307e-05      10.2617      67.0580 
0.000515688      12.0084      64.0751 
0.000171861      7.11214      68.1238 
9.02952e-05      1.90066      54.6375 
0.000273287     0.710634     -129.289 
0.000238018      9.46058      57.7378 
8.73846e-05      5.75847      69.6769 
0.000268807      7.65000      61.9275 
0.000283109      4.23792      70.7100 
0.000423126      2.20511      57.0306 
0.000522597      15.1539      67.4965 
0.000306237      10.8915      68.7359 
8.43631e-05      6.75592      61.7280 
8.40870e-05      3.35261      72.6460 
8.40064e-05      8.72711      61.2324 
0.000427416     0.721110     -123.690 
8.25397e-05     0.884590      47.2906 
8.17319e-05      1.52315      66.8014 
0.000408572      5.19086      69.1210 
0.000112637      9.45146      60.1799 
0.000517935     0.300000      0.00000 
0.000373014      5.75522      60.3169 
0.000691926      14.5055      56.5290 
0.000216150      8.64436      68.6294 
0.000143007      3.88973      72.0309 
0.000301353      5.82280      69.3864 
0.000131560      4.30174      70.3014 
0.000182455      7.49833      65.9987 
0.000130882      13.8311      61.0259 
0.000211795      10.3078      67.1663 
0.000291653      1.58902      65.8545 
0.000144431      2.96816      57.3808 
0.000310783      7.14020      68.6456 
0.000363426      3.33804      73.4652 
0.000203150      7.28097      59.9135 
0.000466256      13.8749      61.1259 
7.35192e-05     0.873213      76.7595 
0.000185197      10.4213      62.5743 
0.000205948      11.3741      57.5674 
0.000375979      4.06356      55.5278 
0.000135385     0.919239      45.0000 
7.13037e-05      5.56642      70.5885 
0.000344208     0.403113      97.1250 
7.04005e-05      6.40644      60.0333 
0.000134161      1.17686      77.7352 
0.000163770      9.86116      63.1751 
6.97178e-05      14.2243      68.1238 
6.85966e-05      1.61012      64.2307 
0.000123253      7.96053      63.1131 
0.000131817      11.0018      62.9691 
0.000190244      13.9846      67.2856 
0.000101145     0.390512     -140.194 
0.000284891      3.36155      59.6209 
0.000291817      9.41833      57.5755 
0.000237231      1.27279      45.0000 
0.000226192      8.08857      67.0804 
0.000176059      12.7122      65.8545 
6.45948e-05      14.2707      68.1986 
0.000321351      6.34547      59.1911 
0.000234346      10.8735      68.9814 
6.36048e-05      15.1077      67.4239 
0.000160843      14.2501      61.7265 
0.000166894      9.21588      64.9643 
0.000417136      2.99541      56.5752 
6.20182e-05      10.5152      57.8213 
0.000297650      6.38847      67.4491 
0.000209544      14.0674      64.5279 
6.09612e-05      12.0354      61.7315 
0.000396424     0.430116     -144.462 
0.000260449      14.5452      61.2323 
0.000167800      7.67219      73.3365 
0.000265844      11.3589      57.2193 
9.84034e-05      5.32752      60.7887 
0.000421806      8.58560      55.1993 
5.90844e-05      1.11803      79.6952 
0.000198457      13.0431      59.6013 
0.000301342     0.921954      40.6013 
0.000157540      15.1212      64.9602 
0.000203172      13.4525      55.6012 
0.000112433      14.3171      68.2729 
5.74223e-05      12.0304      63.8609 
0.000110567      8.62627      68.9386 
5.63029e-05      7.23775      59.7151 
0.000153700      3.87460      72.7342 
0.000150916      10.2885      67.4230 
0.000132101      11.0473      64.2468 
0.000251915      5.88727      69.1022 
0.000149331      12.8693      67.6199 
0.000101195      12.0591      61.5223 
5.40559e-05     0.884590      42.7094 
5.38168e-05      7.16886      69.1633 
0.000103051      1.16726      80.1342 
9.82406e-05      4.95101      69.9180 
5.21112e-05      15.2532      62.2590 
5.20454e-05      11.0246      62.7377 
0.000312050      9.40319      57.1549 
0.000208727      13.9385      67.2062 
5.10793e-05      15.0021      66.4253 
0.000349282      10.4729      57.6757 
9.88286e-05      4.02244      55.1247 
5.06594e-05      12.0794      61.8438 
0.000185116      10.8556      69.2277 
9.76763e-05      14.3636      68.3467 
0.000250787      7.30616      59.5742 
0.000221821      15.1424      64.7888 
0.000136852      7.65800      73.6949 
4.85759e-05      15.2463      67.6403 
0.000227779      4.28515      70.9308 
0.000337614      15.2765      62.0930 
0.000153370      12.7327      65.6491 
4.71260e-05      13.7632      61.1071 
4.69092e-05      8.65520      69.3665 
8.75991e-05      7.93883      62.6280 
8.80016e-05      10.4657      62.7004 
0.000204967      13.4411      57.6105 
0.000123938      14.9822      66.6005 
0.000303174      4.05123      54.5445 
0.000258492      9.23715      64.6833 
4.56388e-05      1.80278      56.3099 
8.78363e-05      15.2737      67.8851 
0.000160034      1.11018      82.2348 
7.89906e-05      6.99232      67.2856 
0.000289399      14.5332      56.3646 
4.38341e-05      11.0033      62.3870 
0.000122091      1.56924      67.5206 
4.32530e-05      9.87446      66.4205 
4.32352e-05      14.4101      68.4201 
0.000217687      11.3442      56.8703 
0.000154811      8.63771      69.6769 
0.000105923      2.17830      58.1340 
8.12963e-05      12.1031      61.6351 
0.000118315     0.750000     -126.870 
4.20892e-05      5.78014      59.8863 
4.14966e-05      12.9430      67.9931 
0.000171770      3.86005      73.4429 
4.10782e-05      13.6953      61.1892 
0.000109722      7.12215      69.0202 
0.000178424      10.8380      69.4749 
0.000174342      6.32851      58.5704 
4.03564e-05      14.3918      68.6052 
0.000169325      13.6015      72.8973 
0.000134983      10.2694      67.6806 
3.96581e-05      15.3324      69.3783 
6.95017e-05      10.9802      62.6182 
3.96349e-05      2.62488      72.2553 
0.000104788      14.0439      64.2560 
0.000170336      7.64412      74.0546 
0.000138341      14.5693      61.0600 
3.84400e-05      13.5504      71.4982 
0.000231130      11.4001      71.3267 
3.83805e-05      15.2926      67.7116 
7.28238e-05      13.0358      68.1578 
7.25561e-05      5.71183      60.0685 
9.93149e-05      7.91596      62.9494 
0.000130680      14.4383      68.6776 
7.11686e-05      13.4397      55.3048 
7.22400e-05      15.3792      69.4440 
7.12680e-05      4.93407      70.4633 
3.66595e-05      11.3741      60.5050 
3.65297e-05      10.4874      63.0685 
3.61612e-05      12.1471      61.7472 
9.78948e-05     0.763217     -121.608 
3.47985e-05      10.3118      61.9439 
3.45766e-05      13.8991      60.9454 
6.38631e-05      12.0317      64.3933 
3.36251e-05      14.9887      67.0273 
3.34260e-05      13.8919      58.5411 
3.31777e-05      6.28590      58.3328 
0.000123102      15.3617      69.6186 
6.09023e-05      5.17325      69.6384 
3.29111e-05      12.9747      59.6800 
6.21779e-05      10.5320      63.1917 
3.28210e-05      1.15974      82.5686 
6.18034e-05      12.0830      61.3139 
3.25861e-05      9.81797      62.3909 
3.25188e-05      13.5663      71.2979 
9.06682e-05      8.62047      69.9885 
3.22600e-05      15.3578      67.6097 
8.99744e-05      13.4833      57.7244 
6.00967e-05      1.55081      69.2277 
3.20662e-05      5.35210      60.3215 
6.17078e-05      7.33161      59.2373 
6.11688e-05      13.0822      68.2393 
3.16218e-05      13.5156      61.2542 
6.09725e-05      5.73694      59.6357 
3.12375e-05     0.738241     -118.301 
5.92552e-05      3.02324      55.7843 
3.09000e-05      8.10818      66.7550 
5.88160e-05      13.3454      54.7618 
5.88585e-05      5.86963      69.5582 
5.99708e-05      14.9624      66.7763 
3.03831e-05      7.69415      62.1027 
2.98979e-05      4.91757      71.0124 
5.78884e-05      13.9428      61.0452 
2.97422e-05      1.10454      84.8056 
2.97100e-05      14.5627      72.0005 
5.76808e-05      4.08044      53.9726 
2.94974e-05      6.94622      67.1263 
2.92955e-05      8.72711      65.6375 
2.90992e-05     0.960469      38.6598 
2.90270e-05      10.8206      69.7228 
2.88731e-05      3.38009      60.7808 
2.88305e-05      13.9654      67.4748 
2.85793e-05      1.77553      57.6526 
2.85485e-05      11.3298      56.5203 
2.85008e-05     0.360555     -146.310 
2.83764e-05      10.2677      61.8126 
2.81054e-05      6.36003      53.3103 
2.77976e-05      8.74714      61.6771 
2.77922e-05      15.4041      67.6806 
