! Center RA: 03 03 35.24222,  Dec: +47 16 16.27545 (2000.0)
! Established model.
! Flux (Jy) Radius (mas)  Theta (deg)  Major FWHM (mas)  Axial ratio   Phi (deg) T \
! Freq (Hz)     SpecIndex
  0.974601      0.00000      0.00000 
 0.0487015    0.0400000     -90.0000 
 0.0926341    0.0565685     -45.0000 
 0.0170754     0.178885      116.565 
 0.0272700    0.0894427     -63.4349 
 0.0299749     0.215407      111.801 
 0.0482043     0.126491     -71.5651 
 0.0253394     0.252982      108.435 
 0.0115685     0.268328      116.565 
 0.0518080     0.164924     -75.9638 
 0.0509768     0.304631      113.199 
 0.0194988     0.178885     -63.4349 
0.00733826     0.291204      105.945 
 0.0148248     0.341760      110.556 
 0.0233330     0.203961     -78.6901 
0.00194406     0.538145      138.013 
0.00377145     0.329848      104.036 
0.00720720     0.678822      135.000 
0.00524869     0.322490      97.1250 
 0.0476719     0.215407     -68.1986 
0.00173292     0.544059      143.973 
0.00478685     0.707672      132.709 
0.00164466     0.280000      90.0000 
0.00161859     0.521536      147.529 
0.00753847     0.320000      90.0000 
0.00299533     0.555698      149.744 
0.00148971     0.737564      130.601 
0.00673763     0.744043      126.254 
0.00537617     0.536656      153.435 
0.00259604     0.282843      81.8699 
0.00627753     0.322490      82.8750 
0.00687745     0.572713      155.225 
0.00241456     0.754718      122.005 
0.00334916     0.776660      124.509 
0.00531651     0.291204      74.0546 
0.00106689     0.776660      145.491 
0.00661055     0.769415      117.897 
0.00101999     0.800000      143.130 
0.00630740     0.557136      158.962 
0.00714177     0.329848      75.9638 
0.000958900     0.809938      147.095 
0.00180652     0.832346      144.782 
0.00165761     0.843801      148.570 
0.00455966     0.787909      113.962 
0.00227385     0.865332      146.310 
 0.0112789     0.304631      66.8014 
0.00906346     0.544059      162.897 
0.00139258     0.898888      147.724 
0.00528486      1.30599      130.030 
0.00254218     0.772528      111.251 
0.00193642     0.913017      151.189 
0.00606502      1.33207      131.348 
0.00232399     0.948262      152.354 
0.00114028     0.796994      107.526 
0.00774896      1.93659      141.710 
0.00254574     0.785875      104.744 
0.00205596      1.00319      156.501 
0.00149381     0.341760      69.4440 
0.000498715     0.880909      140.528 
 0.0119669      1.86462      125.395 
0.000929621      1.02528      159.444 
0.00688953     0.877268      136.848 
0.00214585     0.776660      101.889 
0.00313729      1.06283      160.201 
0.00799586     0.322490      60.2551 
0.000858174      1.27624      122.196 
0.00214934      1.35764      135.000 
0.00630129     0.572713      167.905 
0.000398082      1.25539      120.651 
0.00147216     0.769415      98.9726 
0.00129422      1.27059      118.179 
0.00252215      1.25220      116.565 
0.00167921      1.38852      138.504 
0.00732036     0.233238     -59.0362 
0.00369540      1.96815      142.431 
0.000664312      1.75454      155.772 
0.00214571     0.764199      96.0090 
0.00269985      1.08812      162.897 
0.000920801      1.79109      156.297 
0.00247251      1.44222      146.310 
0.00109424      1.82779      156.801 
0.00189816     0.761052      93.0128 
0.00103959      1.45437      148.496 
0.00245250      1.77133      173.517 
0.00123772      1.86462      157.286 
0.00123430      1.07703      164.932 
0.00138782      2.00000      143.130 
0.00117002     0.605310      172.405 
0.00101381      1.11571      165.466 
0.00320409     0.344093      54.4623 
0.00117626      1.90158      157.751 
0.000854247      1.25539      112.479 
0.000202112     0.843801     -174.560 
0.000936441     0.760000      90.0000 
0.000563431     0.888144     -172.235 
0.000354527      1.31210      127.569 
0.00114405      1.81108      173.660 
0.00128404      1.66373     -170.311 
0.000733584      1.93866      158.199 
0.000348503      1.24065      110.772 
0.00459826     0.256125     -51.3402 
0.000820519     0.933809     -170.134 
0.00111001      2.00878      144.728 
0.00107296     0.761052      86.9872 
0.000421725     0.912140      142.125 
0.000805001      1.25284      106.699 
0.000454985      2.28980      152.987 
0.00133221      2.04157      145.376 
0.00107131      1.97585      158.629 
0.00164252      1.33686      128.928 
0.000148396      1.00240      151.390 
0.000645378     0.941488     -167.735 
0.00111773      1.65940      105.376 
0.00100699      1.70317     -170.538 
0.00186027      2.64121      144.866 
0.000658856      1.85084      173.797 
0.000791806      3.09348      139.720 
0.000503906      2.32551      153.435 
0.000517773      1.24193      104.931 
0.00141496     0.764199      83.9910 
0.00218111     0.989545     -165.964 
0.000574968      2.55562      129.920 
0.000981188      2.77705      131.496 
0.000154609      1.23223      103.134 
0.000767249      3.08934      138.675 
0.00133942      1.89061      173.928 
0.000598453      2.43311      133.668 
0.000661622      1.82822     -169.919 
0.000173223      1.22376      101.310 
0.000454978     0.954149      146.976 
0.000618365      2.80913      160.017 
0.000733259      3.38112      169.089 
0.000111633      1.21655      99.4623 
0.000881082      3.59489      137.255 
0.000209797      2.06495      158.405 
0.000311300      1.21062      97.5946 
0.00185902     0.368782      40.6013 
0.000102473      1.14543      167.905 
0.00115246      1.86762     -170.134 
0.000720989      1.64924      104.036 
0.000195202      1.00000     -163.740 
0.00158793      3.41503     -174.623 
0.00113861      2.27297      151.631 
0.000809717      1.10635      167.471 
0.000281143      1.20599      95.7106 
0.000631392     0.288444     -33.6901 
0.000549946      2.10219      158.806 
0.000778769      2.84675      160.292 
9.46223e-05      1.10923     -154.359 
0.00148432      3.42041      169.216 
0.000777878      3.12410      140.194 
0.000357393      2.58643      129.352 
0.000792118      1.09179     -151.557 
0.000619516      1.89737      124.695 
0.000299425     0.803990     -174.289 
0.000168422      1.29800      123.690 
0.000254240      1.20266      93.8141 
0.000806551     0.769415      81.0274 
0.000811385      3.62436      137.684 
0.000294002      1.35882      132.614 
0.000334089      1.93039      174.053 
0.000452669      1.27122      114.146 
0.000792111      4.47214      153.435 
0.000774043      3.76191      178.172 
0.000156333      1.24065      91.8476 
0.000481431      2.56125      128.660 
0.000415033      1.78885     -153.435 
0.000683535      9.03549      152.301 
0.000544702      3.27365      153.122 
0.000218839      1.28996      119.745 
0.000216313      2.85012      175.170 
0.000411374      2.15035      108.435 
0.000545366      3.45879     -174.026 
0.000455684      1.96652      175.333 
0.000587945      1.24000      90.0000 
0.000404733      2.20907      95.1944 
7.24543e-05     0.894427     -169.695 
0.000397405     0.400000      36.8699 
6.95490e-05      2.43245      135.000 
-0.00234297     0.538145     -48.0128 
0.000187801      1.11140     -149.744 
0.000124649      2.81027      175.101 
0.000123986      2.68745      104.657 
0.000123596     0.848528     -171.870 
6.07853e-05     0.944034      143.616 
6.05898e-05      1.71814      155.225 
-0.000181133    0.0894427      153.435 
6.00606e-05      3.61773      161.966 
5.99265e-05     0.483322      155.556 
5.98484e-05      3.51272      120.069 
0.000195576      1.35351      145.840 
0.000394825      1.37637      144.462 
0.000382636     0.894427      169.695 
0.000379028     0.980612     -168.232 
0.000386347      1.41421      135.000 
0.000184777      1.38622      133.831 
0.000169852      2.22279      149.744 
8.61504e-05     0.855102      169.216 
0.000404874      3.34592      152.210 
0.000240606      1.00000      143.130 
0.000377278      2.61197      130.030 
0.000566432      1.38852      131.496 
8.24617e-05     0.769415      171.027 
0.00137600      3.51932      121.522 
0.000439044      1.38679      146.768 
7.74526e-05      3.25601      142.989 
7.71248e-05     0.980612      168.232 
0.000207384      2.63211      143.653 
0.000337714      3.28804      143.409 
0.000252311      2.40433      134.326 
0.000571591      3.38136      152.526 
7.26586e-05     0.729931      170.538 
0.000250011      2.25460      115.201 
7.02146e-05      2.43508      165.735 
6.89485e-05     0.976524      145.008 
0.000259270      1.03228     -144.462 
0.000418360      2.46447      166.866 
0.000128308      1.01980      168.690 
0.000301294      2.23786      114.274 
0.000118148     0.690507      169.992 
0.000216944      1.97626      144.058 
0.000256005     0.968297      141.710 
9.98214e-05      2.08806      159.829 
0.000464854      3.54175      161.565 
6.01333e-05      1.03846     -164.358 
0.000157362      2.86049      159.538 
0.00121618      1.05603     -142.696 
5.83410e-05     0.776660      78.1113 
0.000208754      3.32024      143.820 
0.000190381      1.05906      169.114 
0.000349453      2.64273      129.472 
0.000197701      1.02840     -166.504 
0.000158820     0.785875      75.2564 
0.000100617      3.28024      142.431 
0.000555156      1.24065      88.1524 
0.000154411      2.22171      113.334 
0.000623500      3.41690      152.835 
0.000191464      3.26435      126.027 
0.00183012      6.78091      154.493 
4.96717e-05      2.89800      159.814 
0.000409873      2.71647      103.627 
0.000223172      2.49479      167.969 
4.78126e-05      2.60860      144.360 
9.22182e-05     0.796994      72.4744 
0.00101661      9.56427      136.695 
9.07511e-05      2.20617      112.380 
0.000262282     0.724431      173.660 
0.000465418      6.81657      135.238 
0.000303929      3.28804      126.591 
0.00135688      4.59861      154.772 
8.17618e-05      3.35261      144.224 
0.000724762      3.24617     -157.543 
4.22375e-05      2.19126      111.413 
0.000260290     0.877268      65.7723 
0.000216989      3.57972      161.768 
7.73322e-05      2.40433      135.674 
0.000188095      3.74037      138.468 
0.000148469      2.17697      110.433 
0.000165223      1.24258      86.3086 
0.000240183      4.03584      140.631 
0.000192206      2.52602      169.046 
9.91333e-05     0.937230      140.194 
3.48735e-05      3.38514      144.620 
0.000195672      8.17459      135.595 
0.000337227      3.72022      126.254 
0.000135564      1.38101     -169.992 
0.000192770      3.31204      127.147 
0.000724095      6.78822      135.000 
0.000118157      2.37588      135.000 
0.000431545      8.01798      155.225 
0.000198684      2.16333      109.440 
8.87333e-05      1.26491      108.435 
0.000548324     0.341760     -20.5560 
0.000268180      2.73788      101.802 
0.000349647      3.26166     -156.894 
0.000146975      3.77614      126.384 
0.000247995     0.840952      64.6538 
0.000356954      8.20322      135.790 
-2.95314e-05      8.12158      142.001 
-0.000462379      8.85600      143.078 
8.10012e-05      3.68543      154.269 
-0.000821652      8.09009      141.827 
7.65090e-05      1.87489      123.690 
0.00140335     0.322490     -29.7449 
0.000131307      9.90014      134.345 
0.000165455      2.05056      159.444 
0.000201809      9.35846      139.160 
-0.00137928     0.512250     -51.3402 
2.75163e-05      1.42042     -170.272 
5.23196e-05      4.06684      140.988 
2.67966e-05     0.764199     -173.991 
0.000408524      3.74401      126.747 
2.62430e-05      7.94380      152.403 
0.000207505      9.62430      153.861 
0.000144725      6.71774      150.382 
0.000241641      3.67042      110.410 
-0.000189304      10.6677      136.671 
0.000499644      6.37156      137.799 
2.51878e-05      3.60555      162.570 
0.000286896      7.90838      152.268 
0.000216298      7.97616      135.000 
-0.000165906      7.26658      146.222 
-0.000263103      8.59553      148.899 
0.000163955      8.23194      135.984 
-0.000466014      11.1361      142.883 
0.000524364      10.3011      133.112 
0.000128593      3.36309      153.130 
-0.000232167      9.06386      146.520 
0.000141185      10.3687      156.105 
0.000354424      12.1549      144.375 
0.000107699      5.71790      137.268 
9.24431e-05      9.53486      153.865 
0.000109652      3.45068      145.389 
0.000300687      10.1980      152.430 
0.000360545      4.49515      168.190 
6.55003e-05      9.92814      134.510 
-0.00129096      4.33848      157.218 
0.000407046      11.1342      149.566 
0.000101276      3.45971      169.340 
0.000366007      8.32038      133.052 
-2.27990e-05      9.35573      144.747 
2.25362e-05      2.01316      159.044 
0.000148871      9.32824      138.999 
-0.000436501      7.31125      146.832 
-0.000267964      5.72713      151.645 
0.000540989      6.68299      150.213 
-0.000307153      9.38842      144.888 
6.40211e-05      4.77895      141.116 
7.96350e-05      3.64373      162.759 
-0.000388558      2.77157     -159.734 
0.000424225      2.72998      100.981 
0.000143234      8.26075      136.177 
-0.00115981    0.0800000      180.000 
-0.000309039      10.6386      136.523 
4.22647e-05     0.466476      149.036 
-0.000313511      6.74472      157.694 
2.10370e-05      4.09800      141.340 
-9.96769e-05      10.4164      142.646 
4.07999e-05      3.72151      154.537 
0.000168482      8.05432      155.344 
0.000121090     0.425206      138.814 
-0.000385422      7.87949      131.295 
-0.000229619      9.06519      140.550 
0.000116874      1.07703     -164.932 
2.00272e-05      1.85300      122.661 
0.000225544      4.28672     -176.791 
0.000327970      1.87019     -138.468 
5.77106e-05      9.21156      138.697 
0.00149970     0.282843     -45.0000 
0.000456916      3.20924     -157.270 
7.50595e-05      4.12931      141.687 
0.000520460      9.24164      138.861 
0.000149883     0.395980      135.000 
8.90949e-05      4.74788      140.812 
0.000369406      7.92707      152.013 
0.000192243      3.48368      145.763 
-0.000118407      7.23337      146.046 
-0.000483889      4.22204      131.543 
0.000123930      9.36273      139.505 
0.000226684      9.51109      150.524 
-0.000338012      12.0629      141.192 
-0.000572159     0.488262     -55.0080 
-0.000208274      8.57494      149.128 
0.000269661      12.4165      143.647 
0.000240487     0.432666      146.310 
-0.000425908      8.65083      156.280 
0.000341780      7.66603      146.061 
0.000221286      8.28966      136.369 
1.85399e-05      2.73437      174.123 
-0.000227817      3.57771     -169.695 
-0.000162868      10.4560      143.086 
-7.18556e-05      7.63623      158.812 
4.89369e-05      2.00639      175.426 
1.81611e-05      9.07092      152.418 
-0.000264428      5.67295      151.809 
-0.000433303      9.03433      140.389 
-0.000521502      6.70773      157.564 
0.000110390      2.77042      175.030 
0.000217154      4.16077      142.028 
-0.000318821      7.67354      158.920 
0.000163009      4.56246      154.558 
0.000288453      8.07416      155.720 
-0.000196575      7.34477      147.002 
4.67181e-05      2.12565      160.201 
-0.000508963     0.466476     -59.0362 
4.82219e-05      3.68196      162.943 
0.000224634      10.1796      152.629 
0.000250827      4.45601      168.085 
0.000173667     0.368782      130.601 
-0.000254391      2.73408     -159.444 
-0.000123492      10.1874      159.786 
0.000194048      7.63288      145.894 
-7.54960e-05      9.03053      146.380 
-0.000133978      11.8619      139.650 
-0.000354756      3.57077     -170.327 
-0.00104929    0.0565685      135.000 
4.47661e-05      3.49903      169.461 
0.000174126      9.47629      150.405 
1.57711e-05      9.27181      139.023 
4.52293e-05      12.1316      144.528 
1.55624e-05      3.32746      152.819 
-8.78799e-05      8.05869      141.651 
-0.000132756      7.37835      147.171 
9.93057e-05      4.71695      140.505 
5.91572e-05      9.39319      139.663 
0.000142934      8.31865      136.559 
0.000113423      10.7870      132.445 
-8.82496e-05      10.6097      136.375 
5.87201e-05      2.76203      100.008 
-0.000457842     0.447214     -63.4349 
0.000143668     0.344093      125.538 
-9.86924e-05      9.42117      145.028 
8.41116e-05     0.400000      143.130 
-2.92122e-05      11.1632      154.078 
-0.000166546      2.40666      105.422 
5.57775e-05      3.72022      163.124 
8.33883e-05      11.1687      149.670 
0.000152124      6.80000      154.942 
-5.57064e-05      7.20022      145.869 
-0.000124552      4.17919      174.508 
2.76242e-05      4.04851      119.604 
-0.000151137      4.19562      131.135 
-0.000123376      5.56216      139.667 
6.92690e-05      11.1509      141.116 
-2.82208e-05      10.6662      136.368 
-9.61137e-05      7.71088      159.027 
5.50260e-05      10.8500      146.427 
-5.49346e-05      11.1272      153.988 
-5.47041e-05      10.4880      143.218 
2.75949e-05      2.27192      116.114 
-9.49991e-05      9.00355      140.227 
1.39678e-05      6.76047      134.281 
-8.14643e-05      7.41199      147.339 
-2.72633e-05      10.2250      159.864 
-6.73512e-05      10.6373      136.219 
1.37047e-05      1.08074     -141.009 
2.69367e-05      9.42371      139.821 
-2.70728e-05      7.63162      139.464 
-0.000108017     0.430813     -68.1986 
1.35237e-05      3.53836      169.579 
4.04428e-05     0.322490      119.745 
1.34586e-05      1.11571     -165.466 
-1.34202e-05      3.00240     -177.709 
1.33755e-05      2.16333      160.560 
1.33474e-05      11.1821      141.244 
-1.32963e-05    0.0400000      180.000 
1.32116e-05      4.61459      132.541 
1.31840e-05      6.20941      151.949 
