! Center RA: 11 53 54.65897,  Dec: +40 36 52.61873 (2000.0)
! Established model.
! Flux (Jy) Radius (mas)  Theta (deg)  Major FWHM (mas)  Axial ratio   Phi (deg) T \
! Freq (Hz)     SpecIndex
 0.0632401      3.14070      83.4181 
0.00910731     0.120000      0.00000 
 0.0155107      3.18044      83.5007 
0.00276020      3.14554      82.6942 
0.00141401     0.126491      18.4349 
0.00403027    0.0800000     -90.0000 
0.00136878     0.178885      26.5651 
0.00132619     0.200000      36.8699 
0.00128605     0.233238      30.9638 
 0.0102421     0.126491     -108.435 
0.00366019     0.256125      38.6598 
0.00228820     0.256125      51.3402 
0.00217997     0.288444      56.3099 
0.00293764     0.341760      69.4440 
0.00660164     0.164924     -104.036 
0.00205113     0.565685      81.8699 
0.00295690     0.268328      26.5651 
0.00383235     0.605310      82.4054 
0.00357490     0.252982      18.4349 
0.00349457     0.644981      82.8750 
0.00399347     0.178885     -116.565 
0.00465620     0.368782      77.4712 
0.00161942     0.651153      79.3803 
0.000814722     0.291204      15.9454 
0.000798806     0.243310      9.46232 
0.00640074     0.690507      79.9920 
0.00430243     0.282843      8.13010 
0.000751992     0.169706     -135.000 
0.00206328     0.200000     -143.130 
0.00482433     0.362215      83.6598 
0.000650827     0.215407     -158.199 
0.00359738     0.322490      7.12502 
0.000635084     0.200000     -90.0000 
0.00239794     0.729931      80.5377 
0.00181920     0.280000      180.000 
0.00603135      2.49159      84.4725 
0.000600272     0.240000     -90.0000 
0.00169625     0.724431      83.6598 
0.00166724     0.243310     -80.5377 
0.00165071     0.282843      171.870 
0.00299306     0.764199      83.9910 
0.000526033     0.368782      12.5288 
0.000522267     0.360000      90.0000 
0.00150900     0.322490      172.875 
0.000514023     0.252982     -71.5651 
0.000509766     0.407922      78.6901 
0.000506862     0.320000      0.00000 
0.00636865      2.49576      83.5584 
0.000496796     0.400000      36.8699 
0.000496258     0.282843     -81.8699 
0.000959951     0.362215      96.3402 
0.00140191     0.291204     -15.9454 
0.000479035     0.425206      41.1859 
0.000476780     0.322490     -82.8750 
0.00265223     0.329848      165.964 
0.000910344     0.456070      37.8750 
0.000907420     0.360000     -90.0000 
0.00218691     0.803990      84.2894 
0.000881897     0.368782      102.529 
0.000438234     0.452548      45.0000 
0.00126538     0.401995     -95.7106 
0.000835721     0.329848     -14.0362 
0.00163077     0.481664      41.6335 
0.00119024     0.304631     -23.1986 
0.00118642     0.379473      108.435 
0.00370534     0.840952      87.2737 
0.000499274      2.53551      83.6598 
0.00188987     0.368782      167.471 
0.00223580     0.447214     -100.305 
0.000394848      2.73057      84.9575 
0.000749213     0.488262      34.9920 
0.00718207      2.81027      85.1009 
0.00140100     0.341760     -20.5560 
0.000364696     0.417612      106.699 
0.00138234     0.512250      38.6598 
0.00375241      2.45601      83.4537 
0.00102631     0.393954      113.962 
0.000684722     0.401995      174.289 
0.000986893     0.456070     -105.255 
0.000649190     0.880909      87.3974 
0.000948302     0.407922      168.690 
0.000937050     0.344093     -35.5377 
0.000640133     0.501199      28.6105 
0.000932542     0.430813      111.801 
0.00672193      3.18522      82.7857 
0.000921692     0.880000      90.0000 
0.000613749     0.468188     -109.983 
0.000309874     0.441814      174.806 
0.000307928     0.538145      41.9872 
0.000306285     0.357771     -26.5651 
0.00104244     0.505964      18.4349 
0.00114219     0.544059     -143.973 
0.000296264     0.538145      48.0128 
0.00140510     0.920000      90.0000 
0.000293540     0.368782      130.601 
0.00157313     0.494773      14.0362 
0.000290009     0.447214      169.695 
0.00182529     0.368782     -40.6013 
0.000287732     0.576888      56.3099 
0.000561464     0.411825      119.055 
0.000552665     0.494773     -104.036 
0.000746338      2.85012      85.1696 
0.000281916     0.481664      175.236 
0.00579076      2.41628      83.3456 
0.000277777     0.568507      50.7106 
0.000503768     0.377359     -32.0054 
0.000513661     0.456070      164.745 
0.000269315     0.468188      109.983 
0.000774349     0.600000      53.1301 
0.000522423     0.486621      170.538 
0.00179343     0.576888     -146.310 
0.00109433     0.960000      90.0000 
0.00111807     0.400000      126.870 
0.000509595      1.00080      87.7094 
0.000255534     0.483322      114.444 
0.000974530     0.526118      171.254 
0.000249266     0.400000      143.130 
0.000484413     0.486621     -99.4623 
0.000247467     0.698570      103.241 
0.000246118     0.565685      171.870 
0.000922330      1.04077      87.7974 
0.000411850     0.432666      123.690 
0.000240058     0.776660      168.111 
0.000239903     0.632456      55.3048 
0.000813588     0.590593     -151.699 
0.000238068     0.708802      106.390 
0.000457115     0.835225      163.301 
0.000447935     0.665733      57.2648 
0.000671737     0.747262      105.524 
0.00138644      1.08074      87.8789 
0.000228538     0.824621      165.964 
0.00103999     0.526118     -98.7462 
0.000599486     0.395980      135.000 
0.00102116     0.395980     -45.0000 
0.000432211     0.624820      50.1944 
0.000635120     0.610574     -148.392 
0.000219969     0.486621      9.46232 
0.00255395      2.77417      84.2072 
0.000217647     0.601332      176.186 
0.000215150     0.861626      158.199 
0.000531889      1.12071      87.9546 
0.000796090     0.533667      12.9946 
0.000783826     0.400000     -36.8699 
0.000212086     0.425206      131.186 
0.000615794     0.785875      104.744 
0.000209308     0.898888      159.146 
0.000208478     0.626099     -153.435 
0.000675761     0.481664      4.76364 
0.000206673     0.640000      180.000 
0.00141212      1.16276      86.0548 
0.000203865     0.734302      60.6422 
0.000202984     0.913893      156.801 
0.000399949     0.544059      17.1027 
0.00230629      2.37217      84.1933 
0.000200022     0.803990      174.289 
0.000197659     0.754718      57.9946 
0.000841786     0.930376      154.537 
0.000924872     0.644981     -150.255 
0.000382236     0.796994      107.526 
0.000193759     0.800999      177.138 
0.000192578     0.555698      30.2564 
0.00104955     0.788923      59.5345 
0.000187713     0.561427      175.914 
0.000346972     0.466476      120.964 
0.000185508     0.594643      42.2737 
0.000528917     0.880909      177.397 
0.000182713     0.521536     -94.3987 
0.000978728     0.526118      8.74616 
0.000697732      1.20266      86.1859 
0.000357663     0.772528      111.251 
0.00112456     0.565685     -98.1301 
0.000485779      2.77042      85.0303 
0.00360737      3.23011      82.1709 
0.000493109     0.393954      156.038 
0.000498374     0.948262      152.354 
0.000173938     0.576888      33.6901 
0.000960310     0.425206     -48.8141 
0.000788496     0.920869      177.510 
0.000741665     0.787909      113.962 
0.00119499     0.680000     -151.928 
0.000323958     0.967471      150.255 
0.00103951      1.18794      135.000 
0.000162011      1.24258      86.3086 
0.000417221     0.809938      110.225 
0.000298574     0.417612      163.301 
0.000583583     0.600000      36.8699 
0.000459385      1.28561      84.6442 
0.00122328     0.823650      60.9454 
0.000451579     0.441814     -5.19443 
0.000748432     0.665733     -147.265 
0.000150194     0.447214      116.565 
0.000435839     0.983870      153.435 
0.000496499      1.00000      90.0000 
0.000145646     0.377359      147.995 
0.000556754      1.32544      84.8056 
0.000267814     0.680000      118.072 
0.000779604     0.456070     -52.1250 
0.000273708     0.960000      180.000 
0.000703026     0.480000      0.00000 
0.000784002     0.605310     -97.5946 
0.000564541     0.751532      115.201 
0.000646239      1.01980      154.440 
0.000877595     0.960833      92.3859 
0.000264190      1.00080     -177.709 
0.000135158     0.377359      122.005 
0.000133464      2.73437      84.1226 
0.000130986     0.344093      144.462 
0.000379683      1.21655      136.332 
0.000130434     0.425206     -41.1859 
0.000130288     0.699714     -149.036 
0.000500656      1.36528      84.9575 
0.000328379     0.715542      116.565 
0.000246693     0.610574      31.6075 
0.000124423      1.06733     -167.005 
0.000123756     0.339411      135.000 
0.000122640     0.960833      177.614 
0.000455571      1.07703     -164.932 
0.000230234     0.452548     -45.0000 
0.000557116      1.05603      155.376 
0.000558187      1.27311      136.273 
0.000733175     0.312410      129.806 
0.000117774     0.611882     -101.310 
0.000455571      1.40513      85.1009 
0.000116637      1.00000      180.000 
0.000114848     0.609262      23.1986 
0.000628997     0.651153     -100.620 
0.000625161     0.843801      58.5704 
0.000111732     0.644981     -97.1250 
0.000111270     0.963328      94.7636 
0.000412992      1.00080      177.709 
0.000418021     0.626099      26.5651 
0.000687602     0.488262     -55.0080 
0.000315208      1.44499      85.2364 
0.000211128      1.09252      156.251 
0.000104989      1.08812     -162.897 
0.000283561     0.873613      105.945 
0.000651849     0.632456     -145.305 
0.000102021      1.30782      156.571 
0.000101602      1.11571     -165.466 
0.000386330      1.30231      137.490 
0.000100293      1.48486      85.3645 
0.000608274     0.847585      109.290 
9.84251e-05     0.312410      140.194 
0.000283027      1.12641     -163.496 
9.82389e-05      1.48216      86.9059 
0.000190800      1.34462      157.249 
0.000547751      1.52210      86.9872 
9.50875e-05     0.521536      4.39871 
9.46282e-05      1.00319      156.501 
0.000445111      2.33238      84.0939 
0.000361716     0.690507     -100.008 
0.000879287      2.88998      85.2364 
0.000265176     0.662118      25.0169 
9.30323e-05      1.04000      180.000 
0.00147067      2.54024      82.7631 
0.000183721      1.10055     -160.907 
0.000558532     0.878180      59.9314 
0.000863594     0.680000      28.0725 
0.000262935      1.39714      156.371 
0.000406518     0.288444      123.690 
0.000493343      1.35882      137.386 
0.000411118      1.04077      177.797 
0.000541347     0.481664     -4.76364 
0.000165582     0.809938      147.095 
0.000191436      1.13842     -161.565 
0.000695647     0.521536     -57.5288 
8.50703e-05     0.447214     -10.3048 
0.000406718      1.56205      87.0643 
0.000245610     0.737564     -102.529 
0.000383486      1.11427     -158.962 
8.37568e-05     0.894427      153.435 
0.000158548      1.08296      85.7636 
8.25259e-05      2.50056      82.6476 
0.000778697      1.43388      157.011 
0.000122274      2.28876      84.9869 
8.09096e-05      1.02215     -120.579 
8.09232e-05     0.843801      148.570 
0.000702709     0.600000     -143.130 
0.000155763      1.15169     -159.677 
0.000654605      2.24891      84.8978 
0.000503304      1.04307     -122.471 
0.000766199      3.23580      81.4692 
0.000982405     0.521536      175.601 
0.000375258      2.57992      82.8750 
0.000146079     0.665733      122.735 
0.000285273      1.60200      87.1376 
0.000284734     0.729931     -99.4623 
7.51102e-05     0.858836      152.241 
0.000202418      2.54558      81.8699 
0.000419734     0.885438      108.435 
0.000268669     0.268328      116.565 
0.000270996      1.60050      88.5679 
0.000151523      1.17644     -162.181 
0.000346635      1.12285      85.9144 
0.000405247      1.38852      138.504 
7.31084e-05      1.04307      175.601 
0.000143507      1.09179     -151.557 
0.000912000     0.913017      61.1892 
0.000693222      2.92985      85.3013 
0.000133016     0.776660      145.491 
0.000519465      1.56051      88.5312 
0.000201273      1.08074      177.879 
0.000105682      1.20333     -164.578 
6.85430e-05     0.823650      150.945 
0.000341663      2.08614      85.6013 
0.000468910     0.521536     -4.39871 
0.000302459     0.555698     -59.7436 
6.68978e-05      1.07703     -148.671 
0.000175367     0.744043      143.746 
0.000247579      1.23223     -166.866 
0.000125699      1.08296      175.764 
0.000235717     0.544059     -53.9726 
0.000176184      1.80710      84.9204 
6.43831e-05     0.656049      127.569 
0.000186573     0.769415     -98.9726 
0.000524469      1.09836     -146.889 
0.000378007      2.12603      85.6840 
0.000185033     0.923472      107.650 
0.000168856     0.486621     -9.46232 
6.33372e-05      1.04995      162.255 
0.000242794      1.06508     -124.287 
6.24354e-05     0.632456      124.695 
0.000158227      2.04626      85.5154 
0.000424565      1.48647      156.194 
0.000321852      3.24197      80.7701 
0.000331793      1.41873      139.574 
0.000189920      1.76726      84.8056 
0.000683101      3.28146      80.8821 
0.000427351      1.24193     -165.069 
0.000258441     0.610574      121.608 
0.000174227     0.520000      180.000 
0.000623478     0.936376      109.983 
5.75491e-05      1.08665      173.660 
0.000364814     0.764199     -96.0090 
0.000161670     0.322490      119.745 
0.000260575      1.07703     -121.329 
5.64283e-05     0.754718      147.995 
0.000105480     0.699714      30.9638 
5.59590e-05      1.08812      162.897 
0.000108498      1.12071      177.955 
0.000230967      1.27122     -167.276 
0.000396774     0.715542      26.5651 
0.000134385     0.712180      141.843 
0.000430610      1.08812     -143.973 
0.000102354      1.12641      163.496 
0.000610158     0.568507     -140.711 
0.000154117      1.09836     -123.111 
8.08432e-05      1.84694      85.0303 
0.000366418     0.576888     -56.3099 
0.000265758     0.576888      123.690 
9.68429e-05      1.16069      178.025 
0.000842375      2.96971      85.3645 
9.22227e-05      1.73666     -141.546 
0.000425526      1.47513      139.399 
0.000357678      1.77133      83.5169 
4.85973e-05      1.31027     -167.661 
0.000308584     0.590593      118.301 
0.000411260      1.74402     -143.393 
7.34621e-05     0.561427     -4.08562 
0.000341939      1.56000      90.0000 
4.80369e-05      1.44499      138.366 
4.78134e-05     0.721110      146.310 
9.05595e-05      1.17644      162.181 
4.74422e-05      1.31939     -165.964 
0.000286183      1.52315      156.801 
0.000127344     0.526118     -8.74616 
0.000314816      1.76816     -142.352 
9.14466e-05      1.59248     -168.408 
4.62770e-05      1.12071     -145.176 
0.000663767      1.11140     -120.256 
0.000379832     0.688186      144.462 
0.000129268     0.601332     -3.81407 
0.000179868     0.304631      113.199 
0.000161122      1.16482      164.055 
0.000327582     0.721110      33.6901 
0.000246825      1.80044      178.727 
0.000208009      1.16619      84.0939 
4.44383e-05     0.803990     -95.7106 
4.38784e-05      1.16276      176.055 
0.000123250      1.28062     -165.530 
4.32787e-05      1.63169     -168.690 
0.000152023     0.734302      29.3578 
8.42183e-05     0.761052     -93.0128 
8.12274e-05     0.948262      62.3540 
0.000223773     0.555698      120.256 
0.000120985      1.73159      83.3675 
0.000139608      1.64000     -167.320 
7.82627e-05     0.565685     -8.13010 
4.18051e-05     0.974064      109.179 
7.93400e-05     0.641249     -3.57633 
0.000565185     0.987927      111.371 
0.000691954      3.24863      80.0738 
0.000141797      1.17098      172.147 
0.000199843     0.898888      57.7244 
0.000343163     0.800999     -92.8624 
0.000184635      1.47567     -122.829 
7.31672e-05      2.32860      85.0729 
0.000210584     0.610574     -58.3925 
3.78881e-05      1.17098      82.1467 
3.78800e-05      1.15447      165.964 
0.000327044      1.68808     -166.293 
0.000175406      1.84174      177.510 
0.000125856      2.36846      85.1560 
7.25927e-05      1.69706      81.8699 
0.000106157      1.14543      77.9052 
7.37655e-05      1.41421     -98.1301 
3.61540e-05      1.30599      130.030 
0.000198520      1.56051      91.4688 
3.59647e-05      1.25284     -163.301 
0.000197686      3.28804      80.1939 
3.55516e-05      1.50572      140.389 
3.52923e-05     0.605310     -7.59464 
0.000420603      1.40911     -96.5198 
0.000130627      1.57582      156.038 
0.000158427      1.11571      75.4655 
0.000132188      1.56205      140.194 
3.43804e-05      1.60100      77.0054 
0.000389161     0.533667     -12.9946 
6.29851e-05      1.00319      113.499 
3.34895e-05     0.644981     -7.12502 
0.000267673      1.49773     -124.114 
9.24710e-05      1.28062      128.660 
9.01035e-05      1.21458      162.759 
0.000416428      1.77629     -144.162 
3.24348e-05      1.57175      75.2564 
0.000391364     0.865332      56.3099 
0.000291561      1.84391      176.269 
0.000115394     0.684690     -6.70984 
3.09925e-05      1.54402      73.4429 
0.000167201      1.73666     -165.324 
8.82589e-05      1.59298      141.116 
0.000162973     0.644981     -60.2551 
3.00627e-05      1.20333      164.578 
8.69383e-05      1.97342     -107.700 
2.95003e-05      1.58240      73.8557 
0.000112529      1.66517      155.898 
0.000125497      1.12641      73.4956 
2.90823e-05      1.19331      166.430 
2.89598e-05      1.56205      92.9357 
0.000370308      2.50344      77.0740 
0.000308465      2.40000     -143.130 
5.62326e-05      2.44818      85.3141 
0.000225881      2.07692     -164.358 
0.000156002      1.55589      72.0309 
9.58155e-05     0.665733      147.265 
0.000103864     0.761052     -86.9872 
2.80222e-05      1.18457      168.311 
0.000259432      1.60200      92.8624 
0.000350683      2.01157     -107.354 
5.32498e-05      1.25603      127.235 
5.38496e-05      2.57527      83.7581 
0.000128327      1.68048      141.766 
2.72218e-05     0.800000     -90.0000 
0.000100238      1.20599      174.289 
9.31914e-05      2.16592      85.7636 
0.000144269      2.51269      76.1850 
0.000230608      1.53101     -123.275 
5.00111e-05      1.22703      160.974 
0.000220884      1.81108      83.6598 
5.13397e-05      1.70176      156.448 
0.000189113      1.88680      175.135 
2.56523e-05      1.08812      72.8973 
9.32410e-05     0.494773     -14.0362 
3.66572e-05      2.57123      84.6442 
0.000114275     0.698570      23.6294 
7.19043e-05      2.48805      85.3894 
0.000274831      1.44499     -94.7636 
6.66059e-05     0.729931     -9.46232 
8.99903e-05      1.28810      126.158 
2.45361e-05     0.533667      167.005 
7.14974e-05      1.75454      155.772 
7.19937e-05      2.52792      85.4622 
0.000137574      1.12000      90.0000 
4.56670e-05     0.724431     -6.34019 
2.34164e-05      1.31210      127.569 
8.63042e-05     0.680000     -61.9275 
4.38520e-05      1.08074     -141.009 
0.000129711      1.76816      142.352 
8.61903e-05     0.800999     -87.1376 
0.000185071      1.53101      70.1448 
7.84813e-05     0.632456      145.305 
0.000239466      1.75317     -145.222 
4.41965e-05      1.09179     -118.443 
0.000195217      1.79109      156.297 
0.000159968      2.42421     -142.374 
0.000191514     0.832346      54.7824 
6.54804e-05      1.40513     -94.8991 
2.23906e-05     0.200000      53.1301 
7.40921e-05      2.20581      85.8404 
0.000110489      1.24065      159.228 
4.36651e-05      2.06495      171.085 
7.19185e-05      1.64195      92.7927 
9.89112e-05     0.950789      112.249 
6.41395e-05     0.764199     -83.9910 
2.18012e-05      1.20266      176.186 
9.59896e-05     0.665733     -57.2648 
0.000225223      3.00958      85.4261 
4.22515e-05      2.07692     -105.642 
6.12571e-05      1.25539      157.521 
0.000115871      2.44524      86.2483 
0.000218648      1.64438      94.1849 
4.01155e-05      1.10055      70.9065 
6.98713e-05      2.61105      84.7261 
0.000168896      3.25576      79.3803 
8.99482e-05      1.24258      176.309 
0.000127931      1.12071      92.0454 
5.74347e-05      2.52254      75.3027 
0.000116107      3.45508     -159.677 
2.04275e-05      2.11092      170.181 
0.000128509      2.08806     -163.301 
7.31215e-05     0.544059      126.027 
2.01949e-05      2.15407     -105.068 
0.000204391      1.34402      126.529 
3.91718e-05     0.594643     -137.726 
0.000190378     0.683520      20.5560 
1.99429e-05      1.01980     -101.310 
7.63316e-05      1.84954     -111.571 
5.33511e-05     0.360000      0.00000 
0.000168577      1.52053     -125.362 
1.97842e-05      1.24065      178.152 
3.90545e-05      2.29957     -103.069 
0.000106281      3.02152     -96.8428 
1.95817e-05      2.15035      170.362 
6.35432e-05      2.65481      83.9458 
7.00687e-05      2.49447      74.1808 
7.48714e-05      1.82428      142.125 
1.93899e-05     0.776660     -11.8887 
1.92955e-05     0.521536     -175.601 
5.54410e-05      2.19672      169.509 
0.000107225      3.06124     -96.7536 
1.89174e-05      1.01272     -99.0903 
1.88841e-05      2.33855     -102.848 
3.70857e-05     0.835225     -16.6992 
1.85029e-05      2.34776     -103.799 
3.55570e-05     0.610574      148.392 
1.84618e-05     0.769415     -81.0274 
6.97474e-05      3.41760     -159.444 
5.78874e-05      1.06283      70.2011 
7.77075e-05      2.65089      84.8056 
3.58679e-05      2.38663     -103.570 
1.81248e-05     0.488262      124.992 
1.81093e-05     0.793977      49.0856 
1.80799e-05     0.967471     -97.1250 
0.000102117      2.28035     -88.9949 
1.79811e-05     0.401995     -5.71059 
8.51485e-05      1.54506      68.7495 
1.78027e-05      2.24571      85.9144 
5.07001e-05     0.698570      13.2405 
9.50826e-05      1.85084      83.7966 
3.45698e-05     0.737564     -77.4712 
0.000201393      1.82779     -113.199 
1.74936e-05     0.847585     -19.2900 
6.70971e-05      1.85602      142.883 
5.05721e-05      2.12904     -154.398 
5.05260e-05     0.913893      113.199 
1.73837e-05      2.48516      86.3086 
6.68998e-05      2.24357      168.690 
6.69806e-05      2.42553     -103.349 
1.72815e-05      1.26301     -169.046 
0.000115107      1.48486     -94.6355 
4.98079e-05      1.00717     -96.8428 
4.97743e-05      3.44140     -160.301 
3.29548e-05     0.898888     -20.8545 
4.28305e-05     0.512250      128.660 
4.91650e-05      3.45138      85.3466 
3.30428e-05      2.39266     -141.789 
1.66753e-05     0.526118     -171.254 
3.27259e-05      1.72047     -144.462 
1.65788e-05     0.624820     -39.8056 
1.65552e-05      1.67905     -167.619 
3.26565e-05      1.68428      94.0856 
4.16666e-05     0.721110     -70.5600 
1.62119e-05      1.11140     -149.744 
1.60586e-05      1.67093     -168.959 
8.93774e-05      1.32966      158.839 
0.000128994      1.35351      161.030 
4.38171e-05      1.06283     -160.201 
0.000156495     0.594643     -160.346 
0.000156250     0.698570      113.629 
4.07417e-05      1.27059      151.821 
7.93152e-05      1.37463     -98.3659 
3.99900e-05      1.40684      165.174 
7.63866e-05     0.483322      155.556 
0.000106138      1.28996      150.255 
3.86626e-05      1.34164     -153.435 
3.83532e-05      1.28996     -97.1250 
3.82973e-05      1.39714      166.759 
3.75720e-05      1.48486     -152.745 
7.20884e-05      1.42773      168.690 
3.67870e-05      1.16619     -95.9061 
3.65078e-05      1.73851     -113.025 
9.20293e-05      1.57429     -152.784 
3.58822e-05      1.45382     -97.9072 
3.58300e-05      1.27624      147.804 
6.33396e-05     0.466476      149.036 
3.52966e-05      1.12641     -96.1155 
0.000191194      1.79109     -113.703 
0.000121480     0.735391      112.380 
3.45607e-05      1.62825     -152.176 
9.83234e-05      1.49345     -97.6961 
0.000156096     0.557136     -158.962 
0.000133734      1.31027      148.736 
9.61877e-05     0.447214      153.435 
3.38625e-05     0.505964     -18.4349 
6.63964e-05      1.96774     -153.435 
3.36493e-05      1.08665     -96.3402 
9.77257e-05      1.64049      91.3972 
6.55466e-05      1.45986      170.538 
9.39598e-05      1.16069      88.0251 
9.38382e-05      2.67761     -103.829 
7.61910e-05      1.04307     -94.3987 
9.37379e-05      2.21450     -106.798 
8.61998e-05      1.33147      147.265 
0.000146129      2.02148     -152.928 
9.03300e-05      1.86462      157.286 
5.79702e-05      1.18929     -160.346 
5.88753e-05      1.72418      86.0091 
2.99927e-05      2.20690     -133.531 
2.97084e-05      1.45382      172.093 
5.60332e-05      1.53883     -152.103 
0.000109627      1.48862     -96.1702 
0.000188730      2.71647     -103.627 
5.64141e-05      1.72743      84.6855 
0.000516735      3.29193      85.1207 
6.88285e-05      1.00319     -94.5739 
0.000146500      2.20327     -105.803 
8.44989e-05      2.23464     -134.275 
0.000106941      1.90158      157.751 
0.000104828      1.37637      125.538 
6.85444e-05     0.963328     -94.7636 
2.76470e-05      1.56461      175.601 
5.41923e-05      1.02528      69.4440 
2.68858e-05     0.920869     -92.4896 
8.41082e-05      2.27438     -124.249 
0.000138971     0.572713     -155.225 
2.63408e-05      1.60449      175.711 
5.09340e-05     0.456070      142.125 
0.000144732      2.23464     -135.725 
9.53346e-05      2.05718     -153.435 
2.58554e-05      1.44886     -96.3402 
7.46363e-05      1.95387      157.109 
2.49901e-05      1.00319      66.5014 
2.48681e-05      1.64438      175.815 
2.44122e-05     0.840000     -90.0000 
2.42175e-05     0.544059     -17.1027 
4.64101e-05      2.23141     -104.534 
0.000193806      2.75536     -103.431 
2.38605e-05      1.64195      177.207 
2.36065e-05      2.07538     -152.447 
4.59731e-05     0.565685      8.13010 
4.32965e-05     0.481664      138.366 
4.28182e-05      1.12285     -94.0856 
0.000174922      2.29713     -125.074 
0.000230226      1.40911      124.592 
2.30257e-05      1.59298     -141.116 
8.68535e-05      2.16148     -92.1211 
8.75854e-05      1.93866      158.199 
8.56691e-05      1.68190      177.274 
4.34424e-05      3.25208      85.0608 
4.29252e-05      1.64779      95.5722 
5.44363e-05      1.17644     -144.689 
0.000141416      2.99546     -124.114 
2.20504e-05     0.557136     -21.0375 
2.15921e-05      1.51208     -127.476 
2.14926e-05     0.488262      145.008 
2.13588e-05      1.68618     -157.694 
2.13229e-05      1.16069      91.9749 
5.90405e-05      2.30755     -123.690 
2.12387e-05      2.55812      80.0958 
2.11511e-05     0.572713      12.0948 
2.08787e-05      1.20266     -93.8141 
7.58324e-05     0.572713     -24.7751 
5.85870e-05      2.11092     -152.949 
2.07133e-05      2.48387      75.0686 
5.88396e-05      2.26345     -136.432 
2.02718e-05      1.70880     -159.444 
2.02829e-05      2.58519      81.9953 
7.67709e-05      1.97585      158.629 
3.91175e-05     0.620967      14.9314 
1.99946e-05      1.53675     -128.660 
6.84545e-05     0.708802     -73.6105 
8.25989e-05      2.78539     -102.440 
5.73419e-05      2.45601      73.9264 
5.73769e-05      2.16037     -91.0609 
1.92917e-05      1.74631     -159.905 
5.46553e-05      1.68428      175.914 
3.52581e-05      1.11427      68.9625 
8.45594e-05      1.48216     -93.0941 
0.000120961      3.10097     -96.6667 
6.92801e-05      1.69186      96.7890 
3.57066e-05      1.58795     -139.086 
5.21533e-05     0.512250      141.340 
3.65066e-05      1.89737      145.305 
1.86675e-05      1.98595     -161.200 
6.01417e-05      2.79428     -103.241 
1.85811e-05     0.880909     -92.6026 
3.55425e-05      1.14403     -143.531 
1.83829e-05     0.824621      112.834 
6.86385e-05      2.61503      83.8534 
4.20602e-05      1.32484      151.113 
8.02776e-05     0.632456      18.4349 
6.83501e-05      3.01808     -124.743 
3.49390e-05      1.97342     -162.300 
8.46438e-05      3.32866      85.8653 
1.76786e-05      2.46739      73.0339 
1.76303e-05      1.12285      94.0856 
1.76350e-05      2.26557     -137.862 
1.75631e-05      1.44222     -93.1798 
0.000122099      1.56000      67.3801 
3.41992e-05      2.12941     -151.991 
3.42877e-05      2.20036     -91.0416 
1.73286e-05      2.01316      159.044 
7.83960e-05      1.92042      144.324 
3.29380e-05      1.16069     -91.9749 
0.000144367      2.44131      71.8619 
3.22283e-05     0.861626      111.801 
1.67436e-05      1.99920      160.115 
3.23587e-05      2.29539     -138.532 
4.70091e-05     0.609262     -23.1986 
4.65203e-05      1.72418      176.009 
4.75202e-05      2.00000     -163.740 
3.18379e-05      3.36595      86.5936 
9.89894e-05      2.20000     -90.0000 
1.60767e-05      2.03686      160.498 
1.60209e-05      1.55332     -124.509 
6.79044e-05      1.89061      83.9275 
0.000127248      3.02866     -123.690 
0.000126545      2.16481     -152.488 
2.89448e-05      1.16825     -141.953 
1.54984e-05      2.07461      160.866 
1.54355e-05      3.09658     -95.9315 
7.61977e-05      1.56205     -140.194 
4.19431e-05     0.923472     -94.9697 
5.50550e-05      1.73666      97.9435 
3.98305e-05      1.16276      93.9452 
4.41170e-05      3.40376      87.3057 
0.000162743      3.13637     -95.8560 
2.93733e-05      2.11244      161.222 
6.45426e-05     0.544059      143.973 
0.000113549      2.32551     -139.185 
1.46508e-05      2.03843     -164.055 
1.44985e-05      1.19331     -166.430 
1.44829e-05      3.16304      80.5377 
8.85348e-05      1.48054     -91.5482 
9.95335e-05      1.56461     -122.471 
7.02299e-05      2.06649     -165.426 
4.09431e-05      3.40212      87.9786 
1.39745e-05      2.18833      161.896 
3.98112e-05     0.626099     -26.5651 
1.38443e-05      3.16986      79.8245 
5.10907e-05      1.72743      174.685 
2.64848e-05      2.18833     -108.104 
2.29786e-05      1.65747     -160.253 
2.67531e-05      1.94402      143.366 
7.12407e-05     0.646220      21.8014 
3.93029e-05      2.22639      162.216 
1.34203e-05      3.13790      78.9765 
6.06455e-05      2.16518     -168.275 
2.15812e-05      1.86462     -112.714 
1.32505e-05     0.898888      110.854 
2.57489e-05      1.74264      99.2461 
0.000182213      3.44093      88.6678 
1.29666e-05      2.09571     -166.759 
2.52609e-05      3.14579      78.2614 
2.39898e-05      1.52053     -91.5074 
1.26600e-05      1.22376     -168.690 
3.61862e-05      1.97626      144.058 
0.000139480      1.57582      66.0375 
2.43309e-05      2.26451      162.525 
3.48767e-05      3.08649     -108.905 
3.49224e-05      2.35593     -139.821 
0.000107484      1.78885      100.305 
0.000102379      3.05103     -124.315 
5.56463e-05      3.15417      77.5500 
2.32279e-05      2.12565     -109.799 
1.19093e-05     0.662118     -25.0169 
1.18779e-05      1.21655     -170.538 
0.000154875      2.41628      70.6652 
8.25862e-05      2.20036     -88.9584 
5.47714e-05      2.30269      162.824 
1.97976e-05     0.967471      60.2551 
3.30420e-05     0.824621     -22.8337 
2.83473e-05      1.88680      85.1355 
6.16098e-05      2.00000      143.130 
3.25909e-05      3.76085     -119.291 
6.59230e-05     0.932952      59.0362 
5.63880e-05      1.73159      173.367 
6.33978e-05      2.74634     -102.619 
1.09232e-05      2.86440     -144.090 
1.08354e-05      1.61988     -159.775 
2.10491e-05      2.19672     -169.509 
1.06291e-05      2.89689     -144.554 
2.00759e-05      1.93866     -111.801 
3.47845e-05      1.16619      95.9061 
2.00054e-05      1.24579     -174.472 
9.21473e-05      3.09968     -109.604 
2.76937e-05      1.56818     -142.253 
1.96880e-05     0.735391     -67.6199 
1.03255e-05      1.48000     -90.0000 
0.000192635      3.79579     -118.996 
1.02954e-05      2.92957     -145.008 
1.02290e-05      2.92684      86.0818 
2.94410e-05     0.877268     -24.2277 
1.01479e-05     0.568507      140.711 
0.000136416      3.17238     -95.0636 
1.00074e-05      1.20930     -145.784 
7.98093e-05      3.16304      76.8425 
5.51132e-05      2.34094      163.113 
8.58891e-05      1.52000     -90.0000 
9.96876e-06      3.05103     -145.685 
9.70901e-05      3.30164     -70.9065 
2.82881e-05      2.23607     -169.695 
1.81885e-05      1.36000      151.928 
9.83788e-06      2.20109     -109.093 
9.72315e-06      3.02866     -146.310 
9.61734e-05      1.44222      123.690 
0.000164079      3.44023      89.3338 
3.37577e-05      2.88694      86.0275 
1.86767e-05      3.06203     -146.725 
7.55366e-05      1.95059      105.461 
2.59232e-05     0.538145      138.013 
4.64207e-05      2.18358     -151.557 
3.20436e-05      2.64756      85.6677 
0.000106331      3.37544     -139.325 
1.73751e-05      2.26874     -170.870 
1.79098e-05     0.913893     -23.1986 
4.23149e-05      2.03214      143.807 
2.60613e-05      3.09555     -147.131 
2.98190e-05      1.30599      152.650 
2.35979e-05      1.00000      106.260 
2.94714e-05      1.28250     -176.424 
7.97152e-05      2.24143     -87.9546 
8.56855e-06      1.22115     -148.392 
3.98288e-05     0.930376     -25.4633 
1.54948e-05      2.21450     -110.072 
3.12103e-05      3.12922     -147.529 
8.13669e-06      3.78058     -119.820 
4.46183e-05      2.37924      163.393 
7.98742e-06     0.734302     -60.6422 
0.000108197      3.31494     -70.2532 
4.70175e-05      3.06203     -123.275 
7.81174e-06      1.23548     -150.945 
1.51766e-05      2.34196     -172.147 
1.48439e-05      1.34164      153.435 
2.85194e-05      2.05602      142.907 
8.90187e-05      3.17238      76.1390 
7.59945e-06      2.17697     -110.433 
2.12989e-05      1.54402     -143.427 
7.47400e-05      1.59248      64.7223 
2.73200e-05     0.538145      131.987 
6.14047e-05     0.954149      56.9761 
1.40804e-05      1.73666      172.057 
7.28294e-06      1.61245     -119.745 
7.24478e-06     0.769415     -62.1027 
5.03043e-05      3.16304     -147.918 
-0.000321620      3.52295      77.5418 
4.96312e-05     0.966644     -24.4440 
1.99620e-05      2.88444      86.8202 
1.39624e-05      2.41628     -173.346 
1.35213e-05     0.927793     -97.4314 
1.32516e-05      1.56000     -90.0000 
2.54695e-05      2.60768      85.6013 
6.83397e-06      2.04157      145.376 
1.33653e-05      1.02450     -51.3402 
6.78420e-06      1.90158     -112.249 
6.76678e-06      3.35738     -158.325 
3.07217e-05      2.73788     -101.802 
5.68713e-05      2.45406      70.9744 
8.31704e-05      3.38018     -159.206 
5.85570e-05      2.42916      162.759 
2.79728e-05      1.69706      171.870 
6.44866e-06      1.20067     -150.018 
6.42734e-06      1.03846      105.642 
-0.000119380      3.05287      148.392 
6.42069e-05      3.40165     -138.814 
6.31041e-06      2.22854     -111.038 
2.39067e-05      1.08074     -51.0090 
6.27293e-06      2.03096      147.875 
1.20697e-05      2.33032     -140.572 
6.18380e-06      2.49159     -174.472 
2.29705e-05      1.13137      98.1301 
6.42280e-05      3.20200      77.0054 
-9.02253e-05      4.62082     -73.9183 
2.75547e-05      2.20291     -150.642 
1.18309e-05      2.08038      142.028 
3.68510e-05      3.13739     -109.359 
5.69931e-05      2.24321     -86.9335 
1.64641e-05     0.933809     -99.8658 
1.67781e-05      2.88250      87.6141 
2.11002e-05      1.28561     -174.644 
5.83930e-06      1.56051     -88.5312 
4.14728e-05      2.10523     -165.700 
4.06411e-05      1.70880     -69.4440 
2.66421e-05      4.22753     -122.638 
5.62972e-06      1.97585     -111.371 
5.61237e-06      2.05251      146.929 
1.64405e-05      3.44209      88.0021 
5.54587e-06      2.56780     -175.533 
-8.47937e-05      1.67475     -40.1560 
1.08099e-05      1.11212     -52.3058 
4.17837e-05      3.21123      76.3100 
1.04233e-05      2.08614      147.529 
4.94754e-05      2.56780      85.5328 
4.90798e-05      1.98917      105.154 
2.96091e-05      3.20899     -94.2892 
2.99496e-05      3.26386     -70.6768 
5.30644e-06      3.44581      86.6726 
1.03929e-05      1.84174      55.6197 
1.01113e-05      2.76926     -100.823 
1.03326e-05      2.11206      142.696 
3.47205e-05      1.16825     -51.9530 
2.04564e-05      3.44836      86.0091 
-7.75758e-05      2.38730      98.6732 
9.89416e-06      3.19700     -148.299 
1.45907e-05      2.29957     -139.939 
-6.25471e-05      2.00878      125.272 
9.78998e-06      2.64484     -176.532 
5.11175e-06      1.57632     -144.293 
1.93591e-05      1.00319     -23.4986 
5.09931e-06      2.80029      89.1815 
2.40663e-05      4.16019     -136.948 
2.86495e-05      2.46739      163.034 
3.33795e-05      1.42042      122.347 
9.94636e-06      3.23234      77.8557 
2.35928e-05      1.80887      54.9042 
1.43902e-05      2.80000      90.0000 
1.88954e-05      2.13654      141.843 
1.88518e-05      4.27401     -121.608 
1.44569e-05      3.38373      83.2110 
4.86102e-06      1.17098      97.8533 
3.27589e-05      3.24099      77.1644 
9.42522e-06      1.55332     -145.491 
4.75627e-06     0.941488     -102.265 
4.70516e-06      2.10789      146.611 
4.69033e-06     0.555698     -149.744 
9.33202e-06      3.41901      83.9559 
9.15583e-06      1.22442     -51.6325 
9.10055e-06      3.44000      90.0000 
-4.58341e-06      2.34196      97.8533 
4.51865e-06      2.80029      90.8185 
-4.51661e-06      4.58240     -73.7798 
4.50399e-06     0.950789     -104.621 
4.49924e-06      3.35452      81.7733 
4.48677e-06      2.22279     -149.744 
