! Center RA: 02 59 27.07663,  Dec: +07 47 39.64286 (2000.0)
! Established model.
! Flux (Jy) Radius (mas)  Theta (deg)  Major FWHM (mas)  Axial ratio   Phi (deg) T \
! Freq (Hz)     SpecIndex
  0.251530      0.00000      0.00000 
0.00706078     0.250000     -143.130 
0.00679822    0.0707107      45.0000 
 0.0125808     0.320156     -141.340 
 0.0226762     0.141421      45.0000 
 0.0318888     0.430116     -144.462 
 0.0241950     0.180278      33.6901 
0.00722504     0.500000     -143.130 
0.00334574     0.986154     -149.534 
0.00608922     0.212132      45.0000 
0.00599420      1.02956     -150.945 
0.00996341     0.390512     -140.194 
 0.0215221     0.250000      36.8699 
0.00971129      1.09772     -149.931 
0.00393002      1.14127     -151.189 
0.00696252     0.353553     -135.000 
0.00178012      1.16297     -154.537 
0.00324739      1.20830     -155.556 
0.00283709      1.25399     -156.501 
0.00140748     0.390512     -129.806 
0.00366392     0.360555     -123.690 
0.00363831      1.30000     -157.380 
 0.0117926     0.282843      45.0000 
0.00305851      1.37568     -160.907 
0.00548274     0.335410     -116.565 
0.00252902      1.42303     -161.565 
0.00159067      1.02591     -136.975 
0.000744132      1.47054     -162.181 
0.00489603     0.316228     -108.435 
0.00378446      1.50416     -164.578 
0.00211784      1.06301     -138.814 
0.00449059     0.320156      38.6598 
0.00105329      2.80045      178.977 
0.000522890      1.55242     -165.069 
0.000481060      2.60192     -177.797 
0.000882956      2.85394      176.987 
0.000434917      2.55441     -176.634 
0.000755584      2.55783     -175.515 
0.000391151      2.90689      176.055 
0.000388713      1.10114     -140.528 
0.00191767     0.304138     -99.4623 
0.000367079      2.91076      175.073 
0.000349330      1.54029     -166.866 
0.000654840      2.86575      173.991 
0.000627059      1.14018     -142.125 
0.000329098      2.60768     -175.601 
0.00171077      1.49164     -166.430 
0.000307451      2.56223     -174.401 
0.00106685      2.87141      172.999 
0.000550739      2.61199     -174.508 
0.000256503      1.47648     -151.699 
0.00106741     0.353553     -98.1301 
0.000475287      2.66177     -174.611 
0.000502404      1.06066     -135.000 
0.000611089      2.87793      172.011 
0.000218997      1.65529     -154.983 
0.000769330      1.80624      175.236 
0.000209335      2.75726     -175.840 
0.000196930      1.70074     -155.695 
0.000343571      2.95677      176.121 
0.000187398      2.80713     -175.914 
0.000944140      1.81246     -155.556 
0.00102433      1.02591     -133.025 
0.000485835     0.291548      59.0362 
0.000171566      2.95381      177.089 
0.000319751      2.85701     -175.986 
0.000799262     0.350000     -90.0000 
0.000428615      2.88531      171.027 
0.000405081      1.75642      175.101 
0.000754990      1.43178     -167.905 
0.000261595      2.90689     -176.055 
0.000447198     0.851469      49.7636 
0.000334663      3.00375      177.138 
0.000220519      2.93471      171.180 
0.000113622      2.95677     -176.121 
0.000208977      1.86078      173.830 
0.000101800      3.00666     -176.186 
0.00119855     0.860233      54.4623 
0.000390734      1.85809     -156.194 
0.000319041      2.94279      170.218 
0.000681493     0.353553     -81.8699 
9.09733e-05      3.05655     -176.248 
0.000681397      1.81108      173.660 
0.000814840      4.40028      179.349 
0.000152271      3.10363     -177.230 
0.000219467      3.05369      177.184 
-0.00108577     0.400000     -180.000 
0.000116640      3.15357     -177.274 
0.000233296     0.269258      68.1986 
5.73585e-05      2.99207      170.380 
0.000202021      1.38293     -167.471 
0.000107723      2.97321      160.346 
0.00245354     0.304138     -80.5377 
5.39405e-05      1.22066     -145.008 
0.000388587     0.254951      78.6901 
9.41542e-05      3.10363      177.230 
9.45644e-05      1.30384     -147.529 
0.000262726      3.02035      160.665 
0.000217782      4.39318      168.179 
0.000869097     0.884590      47.2906 
4.87247e-05      3.20351     -177.316 
-0.000907560     0.350000     -180.000 
0.000252333      1.34629     -148.671 
0.000317978      8.06257     -176.800 
8.42764e-05      3.25346     -177.357 
0.00191576     0.250000      90.0000 
0.000194454      8.05373     -167.085 
0.000189624      1.33417     -167.005 
9.96905e-05      8.82001     -170.538 
7.73770e-05      8.00500     -167.005 
3.90973e-05      1.91638      172.504 
7.38834e-05      1.76706     -154.885 
-0.00170089      1.20416      41.6335 
0.000246810      1.86682      172.304 
-0.000317279     0.550000      90.0000 
7.13152e-05      3.30341     -177.397 
0.000126371      3.06757      160.974 
6.77455e-05      4.44213      168.311 
-0.000492413     0.300000     -180.000 
6.71472e-05      8.30015      179.655 
-0.000235026      1.23693      165.964 
6.46662e-05      3.35596     -176.583 
-0.00128106     0.502494      84.2894 
0.000764595     0.254951      101.310 
9.27556e-05      1.28550     -166.504 
6.29762e-05      2.37697     -165.379 
0.000118845      1.38924     -149.744 
3.18783e-05      3.14006      170.838 
0.000229255      8.35060      179.314 
3.03877e-05      4.35000     -180.000 
-0.000891907     0.250000     -180.000 
0.000252639      1.72192     -154.179 
0.000211142      4.81664     -175.236 
0.000120714      3.40588     -176.634 
2.91346e-05      4.55027      167.949 
-0.000271415     0.901388      3.17983 
0.000117556      3.78319      172.405 
-0.000215725      9.14440     -166.724 
0.000374567     0.890225      51.8428 
2.79864e-05      3.40331     -177.474 
-0.000311568     0.604152     -114.444 
0.000318348      1.17686     -167.735 
2.75841e-05      1.67705     -153.435 
-0.000409517      2.19146     -152.850 
0.000183420      2.46221     -167.093 
2.63706e-05      6.56201     -172.117 
2.58852e-05      3.18944      170.981 
-0.000625532     0.200000     -180.000 
8.93390e-05      8.86933     -170.591 
6.52688e-05      3.11488      161.274 
2.44054e-05      5.75022     -179.502 
-0.000238098     0.452769     -6.34019 
0.000129869      7.25000     -173.267 
-0.000108261      8.47894     -175.264 
4.41109e-05      8.11249     -176.820 
-0.000301709     0.585235     -109.983 
4.38081e-05      8.10247     -167.164 
4.42968e-05      9.00028     -173.941 
-0.000348607     0.509902      78.6901 
4.13855e-05      1.81728      172.093 
7.96148e-05      1.12805     -167.196 
3.97247e-05      8.95056     -173.907 
1.99367e-05      7.76949      175.941 
1.98943e-05      1.26194     -146.310 
1.95729e-05      8.11372     -166.820 
-1.98989e-05      7.56059     -168.170 
-3.83905e-05      9.09574     -166.651 
-3.87000e-05     0.570088     -105.255 
