! Center RA: 22 53 57.74794,  Dec: +16 08 53.56093 (2000.0)
! Established model.
! Flux (Jy) Radius (mas)  Theta (deg)  Major FWHM (mas)  Axial ratio   Phi (deg) T \
! Freq (Hz)     SpecIndex
   8.90963      0.00000      0.00000 
  0.163669    0.0125000     -90.0000 
0.00703878    0.0250000     -90.0000 
0.00566190     0.162500     -90.0000 
0.00561711     0.125000      90.0000 
0.00557367     0.275284     -87.3974 
 0.0121978     0.200390      93.5763 
0.00550057     0.312750     -87.7094 
0.00887079     0.225347      93.1798 
0.00543499     0.337731     -87.8789 
0.00889099     0.250312      92.8624 
0.00537580     0.350223     -87.9546 
 0.0106387     0.262797      92.7263 
0.00532104     0.375208     -88.0908 
0.00529739     0.287772      92.4896 
0.00527113     0.387702     -88.1524 
0.00524872     0.300260      92.3859 
0.00522435     0.400195     -88.2101 
0.00520296     0.312750      92.2906 
0.00518030     0.412689     -88.2643 
 0.0102785     0.325240      92.2026 
0.00513865     0.425184     -88.3153 
0.00509861     0.450694     -86.8202 
0.00508071     0.337731      92.1211 
 0.0100862     0.463175     -86.9059 
  0.580401     0.350223      92.0454 
0.00994540     0.475657     -86.9872 
 0.0146643     0.488141     -87.0643 
 0.0143723     0.500625     -87.1376 
 0.0140924     0.513109     -87.2073 
 0.0183721     0.525595     -87.2737 
 0.0179144     0.538081     -87.3370 
0.00879147     0.550568     -87.3974 
0.00868495     0.563749     -86.1859 
 0.0254384     0.576222     -86.2686 
 0.0325382     0.588696     -86.3478 
 0.0348267     0.601171     -86.4237 
 0.0401698     0.613647     -86.4965 
 0.0605273     0.639458     -85.5154 
 0.0962096     0.651920     -85.6013 
 -0.435731     0.352225     -27.4744 
0.00791057     0.665442     -84.6107 
 0.0279290     0.652998     -84.5077 
 0.0263298     0.640556     -84.4007 
-0.0357930     0.294215      167.735 
0.00922181     0.628117     -84.2894 
0.00904023     0.615681     -84.1737 
0.00445982     0.603246     -84.0531 
0.00880511     0.577170     -85.0303 
0.00865425     0.564718     -84.9204 
-0.0662028     0.291815      170.134 
0.00639933     0.552268     -84.8056 
 0.0105015     0.539821     -84.6855 
0.00619975     0.527376     -84.5597 
0.00815498     0.514933     -84.4278 
0.00804586     0.502494     -84.2894 
0.00792190     0.490057     -84.1440 
0.00587101     0.477624     -83.9910 
 0.0397519     0.350892      94.0856 
0.00194467     0.451560     -85.2364 
0.00962312     0.439104     -85.1009 
0.00570693     0.426651     -84.9575 
0.00564678     0.414201     -84.8056 
-0.0454323     0.289935      172.569 
 0.0111357     0.401754     -84.6442 
0.00549066     0.389310     -84.4725 
0.00362854     0.338425      94.2364 
0.00545056     0.376870     -84.2894 
0.00542736     0.325960      94.3987 
 0.0107631     0.364435     -84.0939 
0.00714061     0.313498      94.5739 
0.00706855     0.352003     -83.8845 
0.00175785     0.301040      94.7636 
0.00524957     0.339577     -83.6598 
-0.0492590     0.288585      175.030 
0.00695697     0.288585     -85.0303 
0.00861277     0.237829      93.0128 
 0.0102974     0.276134     -84.8056 
0.00844095     0.263688     -84.5597 
0.00505218     0.212867      93.3665 
0.00836151     0.251247     -84.2894 
 0.0131247     0.238812     -83.9910 
0.00329885     0.187916      93.8141 
-0.0526480     0.287772      177.510 
0.00812523     0.175446      94.0856 
0.00970642     0.226385     -83.6598 
0.00320952     0.162980      94.3987 
 0.0158238     0.213966     -83.2902 
0.00634097     0.150520      94.7636 
0.00158496     0.138067     -84.8056 
0.00775724     0.138067      95.1944 
0.00464120     0.125623     -84.2894 
 0.0348280     0.113192     -83.6598 
0.00462989     0.201556     -82.8750 
-0.0523847     0.287500      180.000 
0.00151869     0.125623      95.7106 
 0.0923121     0.100778     -82.8750 
0.00150619    0.0125000      90.0000 
0.00149173     0.113192      96.3402 
-0.0533087     0.287772     -177.510 
-0.0200951     0.288585     -175.030 
