! Center RA: 04 33 11.09553,  Dec: +05 21 15.61921 (2000.0)
! Established model.
! Flux (Jy) Radius (mas)  Theta (deg)  Major FWHM (mas)  Axial ratio   Phi (deg) T \
! Freq (Hz)     SpecIndex
   1.03353      0.00000      0.00000 
0.00345365    0.0176777      45.0000 
0.00751773    0.0125000     -90.0000 
0.00729510    0.0279509      63.4349 
0.00196140    0.0250000     -90.0000 
0.000961956     0.191213     -101.310 
0.000954387     0.103078      75.9638 
0.000946855     0.242706     -101.889 
0.000940129     0.142522      74.7449 
0.000933987     0.294215     -102.265 
0.000927915     0.154616      75.9638 
0.00183410     0.333542     -102.995 
0.00182493     0.206155      75.9638 
0.00179578     0.372911     -103.570 
0.000898536     0.218303      76.7595 
0.000890079     0.245586      75.2564 
0.000885261     0.385073     -103.134 
0.00175672     0.257694      75.9638 
0.000877465     0.400195     -104.470 
0.00343534     0.412311     -104.036 
0.00342090     0.269838      76.6075 
0.00881023     0.724784     -122.320 
0.00412121     0.297122      75.3791 
0.00649371     0.424448     -103.627 
0.00321841     0.282013      77.1957 
0.00233225     0.309233      75.9638 
0.00152923     0.294215      77.7352 
0.00154669     0.409458     -102.339 
0.00590680     0.421678     -101.976 
0.00518313     0.321374      76.5043 
 0.0160489     0.735378     -121.799 
0.00143478     0.306441      78.2317 
0.00212835     0.433914     -101.634 
0.00347152     0.333542      77.0054 
0.00472540     0.419263     -100.305 
0.00204440     0.318689      78.6901 
0.00454619     0.330955      79.1145 
0.000658018     0.345733      77.4712 
0.00445417     0.431567     -100.008 
0.00550011     0.343238      79.5085 
0.00536286     0.429571     -98.3659 
0.00572491     0.355537      79.8753 
0.00281790     0.441942     -98.1301 
0.00431180     0.367848      80.2176 
0.00633504     0.440348     -96.5198 
0.00923173     0.746031     -121.293 
0.00603156     0.380173      80.5377 
0.00199549     0.452769     -96.3402 
0.00517193     0.451560     -94.7636 
0.00283671     0.392508      80.8377 
0.000924230     0.378319      82.4054 
0.00180727     0.464018     -94.6355 
0.00610302     0.390712      82.6476 
0.00174587     0.682367      61.5571 
0.00549310     0.463175     -93.0941 
0.00468902     0.756741     -120.801 
0.00200096     0.693384      62.0490 
0.00314515     0.376870      84.2894 
0.00275847     0.389310      84.4725 
0.00541261     0.475164     -91.5074 
0.00382893     0.704450      62.5256 
0.00390620     0.375832      86.1859 
0.00355779     0.500000     -90.0000 
0.00109218     0.388306      86.3086 
0.000706164     0.487500     -90.0000 
0.00433136     0.767504     -120.324 
0.000346722     0.832635     -82.2348 
0.00393348     0.820252     -82.1169 
0.00168720     0.363361      86.0548 
0.000669394     0.475000     -90.0000 
0.000330754     0.362715      88.0251 
0.000329364     0.462500     -90.0000 
0.00130723     0.350223      87.9546 
0.000646915     0.450000     -90.0000 
0.00127815     0.337731      87.8789 
0.000317212     0.437500     -90.0000 
0.000629273     0.325240      87.7974 
0.000312721     0.425000     -90.0000 
