! Center RA: 08 54 48.87493,  Dec: +20 06 30.64078 (2000.0)
! Established model.
! Flux (Jy) Radius (mas)  Theta (deg)  Major FWHM (mas)  Axial ratio   Phi (deg) T \
! Freq (Hz)     SpecIndex
   2.98165      0.00000      0.00000 
 0.0583657    0.0125000      90.0000 
0.00564642    0.0279509      63.4349 
 0.0106364    0.0395285      71.5651 
0.00505789    0.0125000     -90.0000 
0.00500792    0.0515388      75.9638 
0.00245724     0.164412     -98.7462 
0.00243771     0.139754      79.6952 
0.00241897     0.228104     -99.4623 
0.00240447     0.203485      79.3803 
0.00238726     0.252797     -98.5308 
0.00237430     0.242706      78.1113 
0.00236065     0.291815     -99.8658 
0.00234886     0.254951      78.6901 
0.00233578     0.304138     -99.4623 
0.00232483     0.267219      79.2157 
0.00460472     0.343238     -100.491 
0.00458736     0.306441      78.2317 
0.00452669     0.355537     -100.125 
0.00451044     0.318689      78.6901 
0.00445331     0.367848     -99.7824 
0.00443795     0.330955      79.1145 
0.00438593     0.394691     -100.954 
0.00653400     0.357946      77.9052 
0.00858452     0.406971     -100.620 
0.00849728     0.370177      78.3106 
 0.0124336     0.419263     -100.305 
 0.0123102     0.382426      78.6901 
0.00602719     0.431567     -100.008 
 0.0194227     0.394691      79.0459 
 0.0116956     0.446164     -101.310 
 0.0237893     0.458428     -101.004 
0.00188547     0.409458      77.6609 
 0.0249115     0.406971      79.3803 
 0.0281764     0.456207     -99.4623 
0.00342529     0.421678      78.0239 
 0.0329349     0.419263      79.6952 
 0.0502478     0.468542     -99.2110 
 0.0398542     0.431567      79.9920 
0.00123408     0.480885     -98.9726 
 0.0107398     0.466704     -97.6961 
 0.0101700     0.735378      58.2011 
0.00820988     0.417208      81.3844 
 0.0157211     0.763217     -121.608 
0.00229383     0.454320     -97.9072 
0.00671460     0.403113      82.8750 
0.00113427     0.452769     -96.3402 
0.00771600     0.440348     -96.5198 
0.00747707     0.389310      84.4725 
0.00835783     0.426651     -95.0425 
 0.0162278     0.746031      58.7070 
0.00206901     0.376870      84.2894 
0.00799525     0.375832      86.1859 
0.00200939     0.425735     -93.3665 
0.00588912     0.413257     -93.4682 
0.000968434     0.363361      86.0548 
0.00645588     0.362715      88.0251 
 0.0101707     0.412689     -91.7357 
0.00466037     0.375208      88.0908 
 0.0195358     0.773890     -121.122 
0.00945288     0.412500     -90.0000 
0.00774293     0.375000      90.0000 
 0.0171292     0.756741      59.1986 
0.00168721     0.362500      90.0000 
0.00803131     0.425184     -88.3153 
0.00879166     0.375208      91.9092 
0.00754945     0.438214     -86.7295 
0.00750097     0.388306      93.6914 
 0.0257574     0.784618     -120.651 
0.00781654     0.451560     -85.2364 
0.00708079     0.401754      95.3558 
 0.0259349     0.767504      59.6764 
0.00538234     0.465195     -83.8298 
0.00136223     0.427931      96.7098 
0.00599435     0.415519      96.9112 
0.00132861     0.452769     -83.6598 
0.00636017     0.479094     -82.5041 
0.00384155     0.441942      98.1301 
0.00249746     0.429571      98.3659 
0.00186347     0.466704     -82.3039 
0.00425522     0.456207      99.4623 
0.00361557     0.493236     -81.2538 
0.00468248     0.480885     -81.0274 
0.00236893     0.443882      99.7276 
0.00403943     0.470704      100.713 
0.00114120     0.507599     -80.0738 
0.00717692     0.495290     -79.8245 
0.00280695     0.458428      101.004 
0.00328637     0.485412      101.889 
0.00734315     0.795397     -120.192 
0.00476507     0.473187      102.200 
0.00473687     0.509902     -78.6901 
0.00103672     0.500312      102.995 
0.00406147     0.497651     -78.4078 
0.00355185     0.488141      103.325 
