! Center RA: 16 42 58.80997,  Dec: +39 48 36.99402 (2000.0)
! Tentative model.
! Flux (Jy) Radius (mas)  Theta (deg)  Major FWHM (mas)  Axial ratio   Phi (deg) T \
! Freq (Hz)     SpecIndex
-0.0364486     0.121655     -99.4623 
-0.0122254     0.120000     -90.0000 
 0.0108787    0.0824621      75.9638 
-0.0126326     0.101980     -101.310 
 0.0122505    0.0800000      90.0000 
-0.000196250     0.161245     -82.8750 
-0.000719370     0.181108     -83.6598 
-0.000794157     0.200998     -84.2894 
-0.000161290    0.0894427     -116.565 
-0.00155198    0.0824621     -104.036 
-0.00154979     0.442719     -108.435 
-0.000458403     0.223607     -79.6952 
-0.00130851     0.220907     -84.8056 
0.00248955      2.08240     -106.172 
-0.00279189    0.0721110     -123.690 
-0.00129203     0.240832     -85.2364 
-0.00115906     0.526118     -98.7462 
-0.000193878     0.436807     -105.945 
0.000588000     0.140000      0.00000 
-8.81060e-05     0.423792     -109.290 
-0.000158963     0.240000     -90.0000 
-0.000822214     0.260000     -90.0000 
-0.000288972     0.417612     -106.699 
0.00239822     0.161245     -7.12502 
0.000612878      1.92354     -98.9726 
0.00102190     0.107703      111.801 
7.11445e-05      2.29513     -100.037 
-0.000728010    0.0632456     -108.435 
0.00147401      2.31145     -99.4623 
0.00105733      2.06891     -106.858 
-0.000196678     0.320000     -90.0000 
-0.000193963     0.545894     -98.4270 
-0.000389566     0.543323     -96.3402 
0.000289066      1.93752     -97.7119 
-0.000184571     0.260768     -94.3987 
-0.00136355    0.0565685     -135.000 
-0.000228693     0.340000     -90.0000 
0.000595347     0.116619      120.964 
-0.000253716     0.243310     -99.4623 
-0.000314350     0.700286     -91.6366 
-0.000104520     0.388330     -101.889 
-0.00119339     0.247386     -104.036 
9.91827e-05      1.91050     -100.251 
4.96435e-05      1.93494     -97.1250 
0.000592928     0.128062      128.660 
9.67505e-05      2.08806     -106.699 
0.00158920     0.184391     -12.5288 
-0.00101845     0.701142     -93.2705 
0.000135972      1.95028     -95.8860 
-0.000131946     0.362215     -96.3402 
0.000437204      2.15416     -102.875 
9.01605e-05      1.89452     -100.954 
-0.000343055     0.523450     -96.5819 
-0.00366707    0.0447214     -116.565 
4.21466e-05      1.89842     -101.547 
0.000642364     0.141421      135.000 
0.000871039      1.66589     -94.8208 
7.99828e-05      1.96652     -94.6669 
0.000116017      1.87883     -101.669 
-0.000336852     0.360555     -93.1798 
0.000105164      1.98162     -92.3137 
0.000165921      1.88298     -102.265 
-0.000810145     0.241661     -114.444 
0.000365275      2.07480     -107.387 
-0.000100557      3.52460     -92.9273 
-6.70563e-05      6.26418     -73.3008 
0.00233581     0.128062      141.340 
0.000124548      2.14979     -102.355 
-0.000485850      3.17421     -95.4232 
6.32278e-05      1.98091     -91.7357 
-0.000434206      6.28910     -73.1786 
-0.000426580      3.54361     -92.5879 
-8.90778e-05     0.521536     -94.3987 
8.77140e-05      2.10950     -95.4403 
-0.000270274     0.252982     -108.435 
-0.000416659      4.33820     -100.896 
0.000111362      1.98040     -91.1573 
-0.000375600      4.23065     -94.0663 
-0.000359941     0.860930     -92.6630 
0.000110523      1.88733     -102.858 
0.000475312      2.56164     -107.728 
-0.000200960      1.02313     -94.4846 
-0.000433375      4.22076     -91.0860 
-0.000165140      9.71113     -75.9351 
-0.000170054      3.90185     -91.7624 
-0.000161555     0.540000     -90.0000 
0.000371748      2.30825     -98.9726 
0.000258290      2.10770     -94.8991 
0.000139220      2.47524     -102.127 
-0.000240956     0.860233     -91.3322 
0.000475707     0.164924     -14.0362 
-0.000226685      6.12160     -67.1209 
-0.000279376      2.74591     -86.2414 
0.00102468     0.189737     -161.565 
0.000208884     0.189737     -18.4349 
0.000205651      1.80510     -99.5667 
-0.000355258      9.73053     -75.9638 
0.000517690      7.36391     -72.9430 
-0.000191826      3.99765     -105.079 
2.49292e-05      1.90683     -102.724 
-0.000198440      7.32273     -88.4349 
-7.22891e-05     0.250599     -118.610 
-0.000236361      3.02238     -92.2755 
6.82899e-05      1.98010     -90.5787 
-4.73927e-05     0.480833     -135.000 
-0.000413430      2.63735     -71.4277 
-4.65702e-05      1.05546     -99.8193 
8.64832e-05      1.89188     -103.449 
6.74900e-05      7.67521     -77.0501 
-6.65243e-05     0.481664     -138.366 
-0.000291899      4.30562     -87.0711 
4.19863e-05      1.92634     -102.593 
-0.000100225      1.05906     -100.886 
-0.000182849      6.41523     -82.4762 
-0.000224680      7.08531     -83.5169 
0.000117459      1.62308     -86.4677 
-0.000258474     0.721110     -93.1798 
0.000115723      7.81939     -75.7860 
-0.000242356      2.87367     -84.4084 
0.000254030      7.64683     -77.3087 
-0.000366652     0.496790     -139.899 
-0.000283093      3.25564     -74.6831 
-0.000110580      4.38292     -92.0921 
-0.000329966      3.90128     -91.4688 
0.000346601      5.47770     -94.6073 
-8.92392e-05      7.41312     -84.5817 
-0.000243174      3.13465     -105.544 
0.000285444     0.241661     -24.4440 
0.000132179      4.78017     -74.2192 
-2.01762e-05      7.56227     -85.6013 
-0.000380770      8.75077     -67.4204 
-0.000266842      3.44052     -102.420 
-0.000112424      7.56077     -85.7524 
-0.000164052      4.38292     -99.7202 
-0.000474538      1.02489     -72.9795 
0.000145833      9.27631     -78.8112 
-0.000184513      1.22000     -90.0000 
-0.000176897      4.00290     -105.356 
5.58908e-05      2.11603     -82.9422 
0.000418692     0.141421     -8.13010 
1.89665e-05     0.101980      11.3099 
6.65514e-05      2.47952     -102.579 
0.000119306      1.93080     -103.173 
-0.000140455      8.11995     -77.9151 
1.84105e-05      7.59479     -77.6839 
-9.53271e-05      3.56724     -97.0852 
-1.80789e-05      6.56186     -83.5248 
0.000191607      9.25283     -78.9087 
-0.000175399     0.540370     -87.8789 
0.000360823     0.120000      0.00000 
-9.81413e-05      9.85207     -75.5406 
3.52533e-05      1.48054     -88.4518 
-3.44177e-05      6.30635     -80.5078 
0.000259426      6.82126     -69.7585 
0.000781723     0.178885     -153.435 
0.000128460      1.84716     -109.612 
1.76372e-05      7.56680     -77.9476 
-4.97359e-05      4.18115     -84.2349 
-0.000204436      8.01963     -71.8362 
-0.000106862      3.16538     -82.7403 
-0.000182991      4.24924     -93.7782 
5.04127e-05      5.02462     -78.2875 
-6.73063e-05      7.58377     -85.4622 
-0.000283720      2.52792     -94.5378 
0.000306482      7.82637     -63.7623 
0.000120948      7.53501     -79.1374 
-5.02570e-05      8.23847     -67.2945 
0.000205950      2.11858     -82.4054 
0.000382916      4.78565     -73.9888 
-4.99485e-05      5.97438     -77.8249 
-6.79562e-05      6.42012     -72.4117 
-0.000131871      1.06301     -101.944 
-6.38757e-05      2.86007     -89.5993 
-0.000207441      5.45047     -74.0257 
0.000178967      7.83878     -75.8219 
1.70091e-05      1.80044     -91.2730 
-6.48271e-05      3.98362     -105.432 
-0.000266227      3.55089     -63.5793 
-0.000118175      6.56414     -83.3514 
1.69641e-05      1.48297     -79.9025 
8.75902e-05      1.37084     -113.199 
-0.000348005      1.36719     -95.8774 
-4.79337e-05      2.80863     -94.4926 
0.000335183      1.48014     -89.2258 
0.000147258      8.67788     -70.8969 
-8.06406e-05      5.16624     -84.2232 
-0.000217369      6.23618     -68.9493 
3.17700e-05      1.64305     -86.5107 
0.000229174      4.45048     -74.0900 
-0.000162018      8.12416     -77.7772 
0.000130099      6.66228     -69.9875 
0.000141170      1.37884     -113.962 
0.000311884      7.39375     -78.2949 
-0.000238145      7.58222     -85.6129 
-8.97286e-05      8.26465     -67.2201 
-0.000205472      7.25336     -80.7974 
1.58116e-05      1.95243     -96.4698 
0.000399556      6.94262     -85.3734 
-0.000182503      5.97863     -77.6375 
-0.000276506      8.18242     -79.2943 
0.000236951      5.02060     -78.5110 
0.000151778      1.58316     -116.241 
-0.000142166      7.71373     -86.5812 
-9.48821e-05      6.30968     -80.3287 
-4.37132e-05      4.40164     -91.5622 
-0.000167525      5.62516     -77.8910 
6.85305e-05      1.78213     -99.0395 
-7.32177e-05      5.14634     -84.2008 
0.000114810      6.38840     -76.0508 
-6.88620e-05      9.89080     -75.5985 
2.94252e-05      8.90000     -79.1193 
0.000138274      1.45986     -80.5377 
0.000242590      5.80221     -88.4198 
0.000266640      6.56027     -89.4760 
6.99092e-05      8.74318     -72.9744 
-2.80415e-05      2.78869     -94.5248 
0.000107293      9.51315     -70.7270 
-0.000216190      8.00252     -85.7001 
-0.000586558    0.0447214     -153.435 
-5.86471e-05      5.92770     -76.3388 
-1.44465e-05      4.20119     -91.3639 
-0.000146010      3.20624     -86.4237 
-0.000154333      3.68348     -92.4896 
-0.000149817      2.79034     -94.9342 
1.42662e-05      2.06184     -108.083 
0.000212358      1.85397     -110.194 
-0.000134517      2.39641     -83.2902 
-0.000102584      3.54457     -92.9108 
0.000141071      6.97389     -93.6173 
0.000116788      5.83815     -94.5191 
1.40732e-05      1.62197     -87.1729 
-2.76282e-05      6.34315     -88.1932 
0.000101136      8.89625     -79.2458 
0.000243880      3.71079     -75.9638 
0.000195135      8.71821     -73.0616 
-9.17868e-05      5.12644     -84.1782 
-1.37064e-05      2.74729     -85.8252 
0.000104422      9.23576     -75.9638 
5.02146e-05      1.96825     -95.2471 
-3.96161e-05      5.60721     -73.6335 
1.35309e-05      7.22011     -73.4224 
-0.000142560      7.83311     -73.2307 
-9.88409e-05      8.24621     -67.1663 
-1.34357e-05      3.54993     -97.4453 
0.000110724      5.16264     -79.7349 
0.000215990     0.250599     -28.6105 
0.000293775     0.716938     -120.141 
3.94497e-05      6.39325     -75.8768 
0.000182789      6.85417     -82.7920 
5.76501e-05      2.08087     -107.913 
-7.54198e-05      6.34255     -88.3737 
-3.84650e-05      4.42041     -90.7777 
-0.000169431      3.07467     -72.9795 
-0.000125399      9.30705     -68.1757 
-0.000122910      1.20000     -90.0000 
-9.82493e-05      7.46868     -68.3126 
-0.000102265      3.45584     -102.025 
0.000156898      2.32499     -98.4089 
0.000153908      6.61646     -70.5792 
-0.000203562      8.10462     -77.7472 
5.01950e-05      7.06725     -64.5227 
0.000119152      7.85817     -75.8577 
5.03201e-05      8.87353     -71.1975 
-4.89236e-05      6.05310     -82.4054 
-1.28016e-05     0.382099     -96.0090 
0.000202020      6.36899     -76.0074 
0.000255621      6.09921     -78.6532 
0.000100146      10.0353     -69.8315 
-4.80665e-05      6.54199     -83.5051 
6.64866e-05      7.67075     -77.1957 
-2.46080e-05      5.58802     -73.5757 
-5.62577e-05      3.54739     -97.1250 
-1.24856e-05      7.43494     -84.4428 
8.99702e-05      7.53881     -78.9882 
-0.000132356      7.10634     -66.9708 
-9.86822e-05      1.04938     -82.3332 
-2.40034e-05      6.11385     -67.2936 
-0.000112147      7.68752     -73.2151 
4.59912e-05      6.28624     -92.5529 
-8.60969e-05      4.22118     -91.3575 
0.000123147     0.156205     -140.194 
-0.000141307      7.79418     -79.3533 
-0.000120413      3.36933     -78.3566 
9.84950e-05      5.47934     -94.8157 
-0.000145230      5.10654     -84.1554 
-8.78623e-05      8.75159     -76.7895 
9.71575e-05      8.70333     -70.8156 
3.29208e-05      7.19525     -73.5296 
-8.59904e-05      6.94737     -87.3600 
-1.20929e-05      9.85708     -75.4280 
0.000139689      9.49427     -70.6872 
-8.68638e-05      6.73766     -76.0875 
7.62931e-05      9.27245     -78.9324 
1.20163e-05      7.91636     -75.9638 
-7.60721e-05      4.42018     -90.5185 
9.92345e-05      8.88000     -71.0754 
2.14815e-05      1.64195     -87.2073 
0.000117432      7.08531     -64.5923 
-1.18570e-05      5.57455     -73.3204 
-5.47324e-05      1.06733     -102.995 
8.61191e-05      3.71171     -105.309 
9.58607e-05      1.56525     -116.565 
-1.16587e-05      9.83772     -75.3987 
-3.41033e-05      6.34202     -88.5544 
-7.47839e-05      5.55539     -73.2612 
-1.15858e-05      1.04173     -93.3019 
8.42314e-05      9.53448     -68.9797 
-0.000126141      7.25658     -80.6415 
5.54424e-05      7.92124     -75.8234 
-7.36780e-05      3.14865     -105.096 
0.000115469      5.13560     -94.4672 
-5.32288e-05      8.11951     -84.3456 
-4.24521e-05      8.72305     -77.0152 
-0.000124943     0.484149     -141.710 
-7.26220e-05     0.573062     -119.249 
0.000114487      8.89254     -79.3724 
-1.13332e-05     0.384708     -98.9726 
-0.000104907      2.52958     -94.9894 
1.13561e-05      2.49479     -102.031 
-9.40794e-05      4.83735     -66.6148 
-1.12739e-05      9.89580     -75.4863 
-8.32265e-05      7.46131     -68.4553 
5.18345e-05      7.56264     -78.0957 
-5.21893e-05      4.97775     -72.2202 
-6.25774e-05      6.05049     -82.5931 
-1.11887e-05      4.40264     -99.6763 
0.000144973      2.96951     -79.5226 
-3.17200e-05      3.00326     -92.6719 
-6.22212e-05      4.13773     -103.700 
-8.27574e-05      8.19095     -67.0035 
-4.16285e-05      6.54428     -83.3311 
-5.20313e-05      9.64948     -74.9844 
-1.10579e-05      3.15626     -95.8190 
-4.16076e-05      3.18779     -82.4291 
-3.16247e-05      4.24796     -93.5090 
-6.17075e-05      3.68283     -81.2538 
-5.18620e-05      5.31300     -70.8830 
6.25550e-05      5.15911     -79.9534 
-4.13015e-05      6.43506     -82.4995 
-2.11330e-05      6.14003     -67.1935 
-2.16102e-05      3.92128     -91.4613 
-3.16107e-05      9.84278     -75.2861 
-3.15907e-05      2.85188     -84.7692 
-1.08994e-05      6.31307     -80.1497 
-0.000203481    0.0282843     -135.000 
-4.19888e-05      9.02906     -84.0242 
-1.08523e-05      5.45601     -73.8238 
-2.14104e-05      6.34114     -88.9157 
-2.06708e-05      5.76278     -76.3496 
-6.12841e-05      8.00405     -85.5574 
-4.10834e-05      7.46450     -81.3706 
6.05962e-05      2.68403     -73.9960 
-4.02593e-05     0.722496     -94.7636 
-4.05171e-05      9.41237     -72.5661 
-2.99791e-05      7.67025     -65.5066 
-2.00022e-05      4.41316     -97.0284 
3.05337e-05      7.89696     -75.9286 
-5.98511e-05      6.34079     -89.0964 
-4.00720e-05      5.64893     -77.7352 
4.96135e-05      7.87756     -75.8932 
8.89057e-05     0.161245     -150.255 
-2.98087e-05      7.71495     -86.4329 
-2.01099e-05      6.33972     -79.8245 
3.96474e-05      6.47002     -86.8103 
2.00174e-05      6.23041     -93.3125 
-1.99324e-05      4.34203     -101.155 
-1.98431e-05      2.39883     -82.8157 
-3.93421e-05      5.08464     -84.3567 
-1.98007e-05     0.696563     -50.8263 
-1.97404e-05      9.00711     -84.1375 
4.88019e-05      6.29212     -75.0803 
9.92127e-06      8.90541     -70.9954 
-2.92579e-05      7.68177     -73.3579 
9.87976e-06      6.47117     -86.6335 
-1.94530e-05      9.89319     -72.5907 
2.91241e-05      3.78803     -96.9749 
9.83699e-06      5.18536     -78.4300 
-1.94187e-05      7.46153     -81.5224 
-1.93284e-05      9.84788     -75.1735 
-1.92848e-05      1.08259     -101.725 
9.74118e-06      4.76642     -73.9225 
-9.72282e-06      4.13304     -103.431 
9.70316e-06      5.04020     -78.5563 
9.68700e-06      8.91195     -70.8738 
-9.62328e-06      8.10888     -77.6091 
9.62379e-06      9.65339     -72.7664 
9.62288e-06      5.18941     -78.2137 
9.61070e-06      7.69719     -66.8992 
9.56849e-06     0.905539     -120.530 
-9.55992e-06      9.00509     -84.2641 
-9.56645e-06      5.92466     -67.1570 
9.54169e-06      5.76014     -90.3979 
-9.54398e-06      5.90356     -76.4816 
-9.54207e-06      5.36973     -71.0927 
