! Center RA: 16 53 52.21670,  Dec: +39 45 36.60890 (2000.0)
! Established model.
! Flux (Jy) Radius (mas)  Theta (deg)  Major FWHM (mas)  Axial ratio   Phi (deg) T \
! Freq (Hz)     SpecIndex
 0.0812756      0.00000      0.00000 
 0.0109624    0.0282843      135.000 
 0.0100580    0.0894427     -63.4349 
 0.0141520    0.0447214      116.565 
 0.0163634     0.107703     -68.1986 
0.000835978    0.0400000      90.0000 
0.00316246    0.0600000      90.0000 
0.000746984    0.0632456      71.5651 
0.000731125    0.0894427      26.5651 
 0.0125265     0.126491     -71.5651 
0.00141098    0.0632456      108.435 
0.000707573     0.107703      21.8014 
0.00324367     0.141421      8.13010 
0.00132346    0.0721110      123.690 
0.00183694    0.0721110      146.310 
0.000600204     0.100000      36.8699 
0.00116192     0.160000      0.00000 
0.00110062    0.0848528      135.000 
0.00162229     0.116619      30.9638 
0.00209659    0.0894427      153.435 
0.00159066     0.181108     -6.34019 
0.00145200     0.113137      45.0000 
0.000966978     0.184391     -12.5288 
0.000940248     0.100000      143.130 
0.00133626     0.203961     -11.3099 
0.00289881     0.128062      38.6598 
0.00168734     0.107703      158.199 
0.00374252     0.121655     -80.5377 
0.00299473     0.208806     -16.6992 
0.00331385     0.116619      149.036 
0.00452549     0.141421      45.0000 
0.00215627     0.215407     -21.8014 
0.00353660     0.145602     -74.0546 
0.000627045     0.126491      161.565 
0.00244303     0.134164      153.435 
0.000287888     0.200998     -5.71059 
0.000281814     0.120000     -90.0000 
0.000274967     0.200000      53.1301 
0.000779064     0.200000      0.00000 
0.000527105     0.107703     -158.199 
0.000265488     0.205913     -29.0546 
0.000519408     0.216333      56.3099 
0.00246503     0.223607     -26.5651 
0.00132638     0.116619     -149.036 
0.00135543     0.228035      52.1250 
0.00168375     0.200998      5.71059 
0.00225609     0.144222      146.310 
0.000216177     0.152315     -66.8014 
0.00156354     0.216333     -33.6901 
0.00143725     0.126491     -161.565 
0.00159682     0.244131      55.0080 
0.000602554     0.128062      51.3402 
0.00182919     0.116619      59.0362 
0.000511565     0.220000      0.00000 
0.00102201     0.156205      140.194 
0.00155775     0.220907      5.19443 
0.00140465     0.170880     -69.4440 
0.000499392     0.134164     -153.435 
0.00141070     0.256125      51.3402 
0.00126726     0.172047      144.462 
0.00116621     0.145602     -164.055 
0.00141423     0.233238     -30.9638 
0.00115816     0.241661     -24.4440 
0.000485476     0.460000      90.0000 
0.000907336     0.312410      140.194 
0.000302116     0.384708      117.897 
0.000544022     0.223607      10.3048 
0.00106317     0.402492      116.565 
0.000743730     0.417612      73.3008 
0.000329289     0.161245     -172.875 
0.000113218     0.549181      146.889 
0.000996964     0.481664      94.7636 
0.000947486     0.576888      146.310 
0.00126708     0.411825      119.055 
0.000296775     0.325576      137.490 
0.000543850     0.269072      48.0128 
0.000198093     0.243310      9.46232 
0.000663466     0.820975      145.923 
0.000872258     0.164924     -75.9638 
0.000100161     0.181108      173.660 
0.000282384     0.609262      113.199 
9.97044e-05     0.254558      45.0000 
0.000280747     0.601664      111.448 
0.000997444     0.107703      68.1986 
0.000708757     0.180000      180.000 
0.00152741     0.423792      70.7100 
0.00102694     0.566039      147.995 
0.000561864     0.278568      21.0375 
0.000505524     0.297321      137.726 
0.000168773     0.188680      147.995 
0.000561900     0.240832      4.76364 
0.000399108     0.128062     -141.340 
0.000335808     0.816088      143.973 
0.000752141     0.200000      143.130 
0.000789271     0.593633      122.619 
0.000962417     0.620323      110.772 
0.000582702     0.868332      151.074 
0.000954455     0.404969      69.7751 
0.000206215     0.828010      142.853 
0.000531296     0.272029      53.9726 
0.000960409     0.593633      147.381 
0.000328591     0.840238      141.766 
0.000581585     0.200998      174.289 
0.000274752     0.161245     -82.8750 
7.16305e-05     0.868332      141.546 
0.000397078      1.04403      143.569 
0.000517942     0.311127      135.000 
0.000434676     0.250599     -28.6105 
0.000321624     0.752861      106.991 
0.000365817     0.240000      0.00000 
0.000632919     0.639062      110.136 
0.000726073     0.501597      94.5739 
0.000851059     0.876584      152.850 
0.000674829     0.297321      19.6538 
0.000238383     0.852760      140.711 
0.000626694     0.144222     -146.310 
0.000183425     0.189737     -71.5651 
0.000390412     0.121655      80.5377 
6.22609e-05      1.05603      142.696 
0.000802828     0.244131     -34.9920 
0.00123399     0.772010      106.557 
5.96965e-05      1.06827      141.843 
0.000274785      1.08074      141.009 
0.000806274     0.604649      124.216 
0.000700291     0.184391     -77.4712 
0.000163717      1.03228      144.462 
0.000519007     0.220907      174.806 
0.000408209     0.277849      59.7436 
0.000382741     0.240832     -4.76364 
5.11669e-05     0.865563      139.686 
0.000226325      1.09343      140.194 
0.000350592      1.03730      146.004 
0.000141708     0.800000      143.130 
4.86617e-05     0.893756      139.538 
0.000449722     0.312410      129.806 
0.000265329      1.10000      126.870 
0.000333153     0.141421     -135.000 
0.000343920      2.74875      141.796 
0.000291440      1.07815      139.514 
0.000573363     0.216333      146.310 
0.000131334     0.878635      138.691 
0.000460645      1.41450      123.465 
0.000282699      1.10436      125.417 
0.000161458     0.240832      175.236 
0.000498418      3.36482      140.064 
0.000737709      2.92205      139.441 
0.000253219     0.788162      144.293 
0.000338115     0.280713      175.914 
0.000268236     0.297321      132.274 
0.000234864      2.34913      132.930 
8.22090e-05      2.93510      139.145 
0.000194344      3.31306      144.583 
4.08641e-05     0.260768     -4.39871 
5.47655e-05     0.906863      138.576 
0.000143111      3.03117      138.209 
0.000345754     0.304631      23.1986 
0.000558849      2.73642      142.125 
0.000187317     0.263059     -8.74616 
0.000414653      1.44803      147.407 
0.000418975      3.29679      144.382 
0.000338468      3.03210      149.036 
0.000288230     0.891964      137.726 
0.000113493     0.772010      163.443 
0.000485319     0.316228      18.4349 
0.000309467      2.25397      131.042 
0.000107646      1.06301      138.814 
0.000497696      9.63863      131.130 
0.000184189      3.36743      140.543 
0.000137654      1.11212      127.694 
0.000100180      3.04454      137.929 
0.000171003      1.43122      123.024 
3.57573e-05      1.02626      146.929 
0.000397538     0.766551      164.876 
7.00229e-05      1.12606      123.408 
0.000158548     0.885889      151.699 
0.000435463     0.286356      65.2249 
0.000278405     0.240832     -41.6335 
0.000410087     0.796994      107.526 
6.72210e-05      3.13209      143.569 
0.000367578      2.86775      149.859 
0.000237260     0.316228      124.695 
0.000274327     0.266833     -12.9946 
3.43293e-05      3.17036      150.524 
9.60971e-05      1.05395      146.611 
6.76463e-05      3.07044      136.848 
0.000287221      3.00147      132.299 
-0.000129968      6.77324      138.591 
6.72999e-05      3.38018      140.281 
0.000149484      2.36279      133.285 
9.83821e-05      1.14280      122.856 
0.000261442     0.616117      125.754 
0.000115357      1.06151      137.291 
8.92708e-05      1.04307      147.529 
0.000322642      2.52958      146.938 
9.48943e-05     0.500400      92.2906 
0.000148240     0.436807      164.055 
0.000176569      3.18779      150.701 
0.000154886      3.05588      136.591 
0.000175785      2.63644      127.913 
3.21774e-05     0.322490      119.745 
9.23428e-05      1.10887      140.856 
6.32615e-05      1.44803      122.593 
0.000204926      1.10887      129.144 
8.87799e-05     0.375766      115.201 
0.000200684     0.561427     -4.08562 
8.99838e-05     0.233238      149.036 
9.08737e-05      1.15966      122.320 
0.000118193      1.46492      122.171 
9.33870e-05      5.97478      147.161 
8.55777e-05      3.16006      143.493 
-0.000141597      6.76003      138.718 
0.000195933      12.0934      136.005 
0.000111443      1.39270      125.059 
0.000112602     0.520384      92.2026 
2.92195e-05     0.340000      118.072 
0.000111085      1.79109      150.573 
0.000110651      2.24089      130.657 
8.31569e-05     0.776660      145.491 
5.64904e-05      1.04690      136.548 
0.000110993      3.66344      148.392 
0.000137445      1.13208      122.005 
0.000110562      1.42042      147.653 
2.87181e-05     0.300666      176.186 
5.52788e-05     0.393954      113.962 
0.000106414      1.78135      151.133 
0.000175696     0.323110      21.8014 
8.30110e-05      3.06966      136.320 
5.54764e-05      1.12446      141.499 
-8.27444e-05      4.05265      131.399 
8.19058e-05      6.00243      147.104 
5.45896e-05     0.627694      112.479 
8.17804e-05      1.47146      121.097 
5.40609e-05      1.92800      126.989 
5.37056e-05      8.11566      148.503 
2.69102e-05      3.64642      148.228 
-2.66746e-05      11.6225      137.580 
2.66658e-05     0.181108     -83.6598 
2.64805e-05      2.66008      136.828 
4.46549e-05      1.03325      137.353 
4.78156e-05      1.37361      137.951 
0.000643450     0.876812      135.000 
0.000221126     0.636553      136.273 
0.000376943     0.205913      150.945 
0.000546812     0.622896      137.603 
0.000376086      3.06809      142.682 
0.000278600     0.891067      134.091 
5.05984e-05     0.905097      135.000 
0.000275676      1.16825      141.953 
8.11614e-05      1.34536      138.013 
0.000385962      1.35882      137.386 
4.83837e-05     0.404969      159.775 
0.000333520     0.588558      99.7824 
0.000215015     0.423792      160.710 
0.000173449      3.08402      142.907 
0.000246892     0.196977      156.038 
0.000127241      1.04690      133.452 
0.000460083      3.12698      136.814 
0.000265665      2.89834      148.833 
4.14813e-05      2.51873      147.319 
0.000119642      1.35794      136.193 
0.000287772     0.300000      126.870 
0.000118301      3.07877      146.929 
0.000326227      2.50192      147.072 
0.000149876      1.18406      142.549 
0.000512720     0.400000      90.0000 
7.80802e-05     0.627694      157.521 
0.000216041      2.88804      149.172 
3.91545e-05      2.85125      145.864 
3.88432e-05      3.09613      142.612 
0.000143609      1.06151      132.709 
3.80213e-05      1.37186      135.591 
0.000206584     0.611882      101.310 
0.000332719      1.70294      130.236 
0.000141810      3.22416      142.561 
0.000168395      2.83471      145.637 
3.71517e-05      1.41450      133.854 
0.000277522      3.14070      136.548 
0.000434309      2.34887      141.569 
0.000210017     0.398497      162.474 
0.000247192      3.08972      146.619 
0.000106034      1.21211      142.374 
0.000225043     0.646220      158.199 
0.000154862     0.637809      138.814 
0.000102143      2.63287      137.463 
0.000148177      1.44278      133.877 
0.000167019      1.11140      120.256 
0.000104084      2.84788      150.555 
3.55567e-05     0.286356      24.7751 
0.000134181      3.34574      144.980 
6.80995e-05     0.189737      161.565 
0.000256412      2.95256      139.946 
3.48419e-05      1.32076      122.005 
0.000234994      1.33776      121.551 
0.000314416      1.38679      146.768 
9.46345e-05      2.62800      143.043 
6.54687e-05      1.54777      122.869 
0.000151938      2.83810      150.906 
0.000235472      3.57435      148.266 
0.000139189     0.862786      134.061 
0.000176898     0.181108     -173.660 
0.000170648      1.07629      131.987 
0.000121489      5.64624      149.802 
9.20105e-05      1.73113      130.314 
3.12879e-05      1.11606      143.746 
9.09880e-05      1.57544      123.085 
0.000141091      3.23636      142.280 
0.000187006     0.816333      149.036 
9.43509e-05      5.68007      148.829 
0.000406202      2.61817      137.167 
3.04805e-05      1.42899      133.299 
0.000510505      1.10145      119.358 
0.000237482      3.36214      145.176 
0.000110007      2.49110      147.458 
0.000112483      2.81091      151.064 
8.50176e-05      1.10436      144.583 
0.000218935      2.33324      141.263 
0.000213411     0.608276      99.4623 
0.000197399      1.34715      139.214 
0.000230566      2.94170      134.449 
5.77118e-05      1.75932      130.389 
5.64382e-05      1.45726      133.332 
3.81230e-05      1.63083      123.495 
2.84400e-05      5.61890      149.876 
5.75083e-05      3.12621      136.296 
3.82748e-05      1.65855      123.690 
9.91400e-05      2.60000      143.130 
0.000133739      5.60889      150.052 
0.000217489      2.11358      150.524 
4.43421e-05      1.78751      130.462 
0.000193870      5.69045      148.656 
7.61579e-05      2.84007      146.198 
0.000185073      1.08407      119.876 
0.000151228      1.56461      122.471 
0.000127844      1.82800      126.995 
0.000215637     0.316228     -34.6952 
0.000162591     0.833547      149.744 
6.84541e-05      2.72419      142.457 
0.000158825     0.639062      159.864 
0.000204982     0.184391     -167.471 
8.70426e-05      1.40357      130.956 
5.08983e-05      2.47427      147.209 
7.58421e-05      3.67837      147.433 
0.000208740      2.28674      129.677 
0.000239930      1.09289      145.437 
0.000163100      2.82347      145.972 
0.000205367      2.82843      151.260 
9.41036e-05      3.54683      148.371 
0.000169983      1.77234      130.882 
0.000164616      5.58158      150.128 
6.47885e-05      2.93728      139.695 
0.000108434      1.31027      121.264 
4.74231e-05      3.25220      142.496 
6.20470e-05      2.12349      150.054 
2.41229e-05      1.67475      130.156 
0.000109091      1.09124      131.285 
6.59896e-05      3.14159      137.064 
2.38166e-05      1.33417      139.865 
0.000230992      3.70600      147.339 
6.73065e-05      2.25858      129.611 
0.000105030     0.791202      106.144 
0.000126181      1.47105      133.898 
8.82962e-05     0.332866     -32.7352 
0.000202193      5.70088      148.485 
0.000219968      1.80056      130.946 
8.02580e-05      3.11949      139.160 
0.000135230      2.14149      145.271 
0.000106867      1.40357      147.216 
8.68658e-05     0.364966     -9.46232 
0.000403872      1.84402      126.621 
0.000145763      3.28494      151.250 
0.000108503      1.68772      130.675 
6.18608e-05      2.13101      150.789 
0.000184317      2.82899      146.535 
6.35067e-05      3.35076      145.456 
0.000179357      1.55396      121.849 
8.34834e-05      2.44663      147.349 
2.22956e-05     0.613514      160.974 
2.21206e-05      3.26441      142.217 
8.14312e-05     0.860930      149.265 
6.31973e-05      1.34952      140.412 
8.82806e-05      3.11743      146.514 
6.21262e-05      2.12509      144.964 
2.15240e-05      5.63620      149.978 
4.17808e-05      3.28024      142.431 
0.000266975     0.305941     -168.690 
2.13022e-05      1.06301      131.186 
8.11653e-05      5.55428      150.204 
2.11396e-05      1.41450      146.535 
0.000176299      6.83947      146.449 
0.000206056      2.91342      134.444 
3.98923e-05     0.302655     -172.405 
8.03060e-05      3.46237      152.103 
2.06631e-05      2.74007      142.712 
2.05989e-05     0.368782     -12.5288 
7.32497e-05      3.47477      148.414 
0.000432967     0.200000     -90.0000 
0.000145128      5.66353      149.904 
0.000114132     0.632456      161.565 
8.65196e-05      5.36436      147.021 
0.000124431      2.27403      129.289 
0.000178645      6.93204      143.328 
5.24934e-05      2.57200      143.219 
3.87188e-05      5.25304      146.491 
1.97517e-05      3.07200      143.205 
0.000110313      2.84598      151.454 
5.56427e-05      1.46479      145.008 
0.000114166     0.816088      107.103 
0.000105316     0.328024     -37.5686 
0.000146610      3.29612      142.643 
0.000132746      2.92773      134.170 
5.53733e-05      5.35350      147.200 
1.90032e-05     0.392938     -14.7436 
0.000215086      6.05670      139.419 
0.000102308      1.08167      146.310 
1.88602e-05      2.39140      147.639 
1.87521e-05      1.40584      129.806 
0.000414363      8.92558      144.209 
2.88655e-05      1.84043      137.643 
0.000375508      1.07815      130.486 
8.69985e-05     0.388330     -11.8887 
1.84830e-05     0.640312      141.340 
0.000118565      5.71136      148.314 
0.000454763      11.5855      140.815 
0.000375030      4.84487      142.042 
0.000125822      5.23637      146.371 
0.000251617      1.36029      138.576 
0.000190308      4.47214      153.435 
0.000214672      2.64764      132.245 
3.55852e-05      2.46349      147.600 
1.81332e-05      1.39284      147.907 
6.53929e-05      5.52699      150.281 
0.000158220      3.73363      147.246 
1.79715e-05      3.36309      153.130 
0.000200322      5.32755      148.040 
0.000177576      1.32740      120.816 
0.000215133      3.80526      140.117 
1.78305e-05      3.64049      152.872 
0.000195898      6.65086      146.406 
0.000131254      1.82702      138.106 
0.000104859      5.55817      146.596 
0.000103338      6.85615      146.542 
0.000278816      4.49003      153.549 
4.98117e-05      2.15564      152.959 
3.13697e-05     0.644050      143.842 
1.72579e-05      3.63142      153.153 
3.37729e-05      1.38232      148.610 
0.000139498      1.54350      121.218 
4.95248e-05      5.41025      144.782 
0.000144111      2.75224      142.381 
1.70009e-05     0.379473      161.565 
0.000128124      3.35410      153.435 
9.84649e-05      2.36381      147.789 
0.000142949      6.91601      143.230 
0.000147750      2.83648      151.809 
7.72555e-05      3.64927      153.295 
1.63207e-05      1.80854      150.884 
4.65524e-05      1.47635      144.372 
3.06350e-05     0.657875      160.463 
7.65517e-05      7.76343      147.948 
0.000155224      8.05546      141.451 
4.38783e-05      1.87200      126.747 
0.000316656      3.84926      137.106 
0.000124251      11.6010      140.877 
9.41756e-05     0.400500      87.1376 
0.000172567     0.384708     -8.97263 
1.58799e-05     0.660303      144.866 
1.58516e-05      3.35726      144.700 
0.000110336      1.37201      149.323 
0.000265182      7.12522      142.069 
0.000286075      3.83885      151.699 
0.000114617      2.83478      147.095 
0.000211974      8.03983      141.362 
4.41374e-05      3.26741      151.082 
0.000175815      4.10000      143.130 
6.88799e-05      2.50799      147.704 
0.000107056     0.585491      97.8533 
6.00898e-05      5.64128      141.911 
4.53616e-05      2.28954      128.972 
1.55471e-05      7.78039      148.026 
0.000332985      5.69087      149.831 
0.000151413      2.11367      145.408 
7.02193e-05     0.600000      126.870 
7.19965e-05      7.20650      147.236 
2.87155e-05      3.13465      139.399 
2.88641e-05      5.38238      144.834 
0.000149270      2.10761      133.847 
0.000184502     0.344093     -35.5377 
7.07095e-05      2.85412      151.998 
1.50492e-05      2.17348      153.199 
0.000201927      1.54777      154.759 
0.000219303      8.35208      142.883 
4.31320e-05      5.81095      148.225 
2.91191e-05      3.40969      136.664 
0.000263031      6.88387      146.495 
9.63508e-05      9.60802      136.940 
1.44863e-05      2.92500      152.734 
0.000145357      2.13242      113.199 
7.23455e-05      3.45774      148.241 
5.21779e-05      2.16453      153.672 
2.82042e-05      2.31767      129.046 
2.72333e-05      5.39392      144.660 
0.000155960      8.02419      147.934 
8.77420e-05     0.203961     -168.690 
5.07526e-05      3.37360      144.897 
1.41665e-05      7.77406      147.823 
9.53582e-05      5.82687      139.036 
0.000126859      4.05744      156.468 
6.90314e-05      2.10618      149.783 
6.49937e-05      5.51710      150.461 
0.000109849      5.65364      141.752 
0.000338057      6.07190      139.542 
0.000176222      3.01629      132.044 
2.72461e-05      2.94279      152.913 
1.38963e-05      1.36235      139.764 
0.000117868     0.380526      86.9872 
7.71166e-05      8.36803      142.966 
4.00118e-05      7.75714      147.744 
0.000225994      1.53323      120.579 
1.38272e-05      3.87783      147.212 
6.17739e-05      2.56008      143.578 
9.15341e-05      4.49911      153.891 
0.000206124     0.286356     -167.905 
1.35194e-05      2.30512      128.660 
6.26014e-05      7.74648      147.869 
0.000121234      5.83849      148.161 
0.000110029      3.65825      153.715 
5.01523e-05      3.42345      136.420 
0.000114740      5.91202      142.975 
1.32213e-05      2.87472      148.079 
2.60757e-05      11.6188      139.538 
2.60769e-05      3.92230      147.282 
7.83862e-05     0.848528      135.000 
0.000286370      2.33324      128.737 
2.55267e-05      3.77709      140.156 
3.78734e-05      6.62314      146.454 
0.000157334      10.6784      134.165 
0.000291958      2.61939      132.215 
6.17546e-05      11.7480      144.632 
2.53925e-05      7.17886      147.284 
0.000160985      12.2974      138.428 
0.000132452      6.45631      141.035 
6.02653e-05      2.91589      153.083 
2.53605e-05      9.59341      136.859 
0.000126362      10.6502      134.163 
0.000130048      1.36191      150.046 
1.26346e-05      1.50426      144.197 
0.000190355      6.66048      140.238 
0.000306258      10.5925      135.229 
4.89410e-05      3.93914      147.440 
4.79766e-05     0.810432      105.751 
5.16912e-05      1.86011      126.254 
1.25531e-05      3.92800      155.001 
9.07433e-05      2.16832      165.579 
0.000239842      11.6341      139.602 
9.72758e-05      5.36604      144.711 
9.04543e-05      6.45539      149.462 
0.000476693      9.56515      136.864 
2.41590e-05     0.612209      128.367 
5.90702e-05      4.51708      154.002 
8.45570e-05      3.10645      146.821 
0.000140276      12.1495      135.867 
7.46770e-05      6.15337      149.100 
5.64731e-05      3.78993      139.923 
0.000152398      7.19569      147.370 
5.36568e-05      1.65952      130.601 
1.19365e-05      3.13694      139.914 
0.000117539      4.08377      156.322 
4.53289e-05      1.07070      147.200 
3.41862e-05      11.7179      144.167 
8.19111e-05      3.91842      154.612 
0.000225979      2.15081      112.989 
5.44848e-05      2.52492      147.947 
2.24881e-05     0.360555      160.560 
4.82244e-05      5.49971      150.358 
9.67044e-05      3.95601      147.595 
0.000326289      7.72955      147.790 
0.000334012      2.16342      166.092 
4.17708e-05      6.63982      146.549 
2.23236e-05      1.62800      142.989 
4.37353e-05      1.91050      120.861 
2.13860e-05     0.632456      145.305 
0.000177506      11.7300      136.865 
1.14769e-05      4.06768      138.788 
0.000103927      4.53506      154.113 
8.28312e-05      11.6725      141.540 
1.14575e-05      7.74023      147.665 
4.23440e-05      3.43796      136.650 
0.000132308      8.37704      144.033 
2.18681e-05      2.69436      151.152 
6.87904e-05      11.7644      144.689 
4.32127e-05      8.03482      147.813 
8.98318e-05      4.09590      138.761 
0.000192474     0.835225      106.699 
8.74880e-05      5.30000      148.109 
0.000159828      2.93373      153.260 
5.00945e-05      6.96003      143.295 
2.11643e-05      2.89171      148.289 
4.66359e-05      3.32728      153.589 
0.000171253      8.64373      147.376 
9.36120e-05      3.76175      139.960 
0.000149404      11.7134      144.030 
5.41263e-05      2.15574      154.148 
2.07558e-05     0.624820      129.806 
0.000109849      5.48985      150.540 
9.32474e-05      2.10238      145.856 
0.000108754      1.52315      119.932 
5.46105e-05      2.54401      143.310 
1.86840e-05      8.63296      147.488 
3.84700e-05     0.605310      97.5946 
0.000101854      5.94713      147.218 
6.48503e-05      2.00340      121.945 
3.90646e-05      1.06000      148.109 
6.60803e-05     0.382099     -6.00901 
1.02688e-05      8.06241      147.769 
5.64467e-05      3.97291      147.750 
3.82116e-05      11.8055      132.528 
0.000267522      12.5171      135.842 
5.39845e-05      3.42427      136.893 
1.01290e-05      3.18911      141.621 
2.37262e-05      2.33384      133.958 
0.000177341      5.11641      154.036 
0.000123820      11.7908      132.594 
0.000246213      6.47262      149.552 
8.06790e-05      4.82912      141.896 
7.02549e-05      6.08227      153.014 
0.000354789      12.3124      138.490 
1.95288e-05      5.66604      141.593 
4.29460e-05      8.38296      147.372 
0.000131170      3.03117      131.791 
9.81276e-06     0.386264      158.749 
9.79032e-06      8.07309      147.649 
2.71203e-05      1.64012      142.431 
8.22981e-05      5.14315      153.933 
9.72174e-06      7.83788      148.460 
2.83509e-05      11.9089      142.437 
1.92116e-05     0.628013      127.235 
3.48394e-05      5.19199      146.310 
0.000109501      10.9670      131.451 
1.85416e-05      1.45671      134.444 
4.17903e-05      5.81178      138.907 
7.32900e-05      3.43022      148.349 
0.000257949      4.39186      129.271 
9.49935e-06      2.81887      151.617 
-0.000278562     0.635295      28.1786 
3.52272e-05      1.30981      172.983 
2.56491e-05      2.54189      148.186 
0.000133479      4.10210      156.435 
8.03592e-05      5.39203      146.958 
0.000175137      3.23975      159.775 
2.72018e-05      5.65038      141.467 
3.50708e-05     0.616117      144.246 
7.44632e-05      1.63132      130.525 
0.000223940      11.1947      144.379 
3.51702e-05      4.55306      154.223 
2.61551e-05      3.15785      141.170 
2.53564e-05      1.03247      171.085 
9.43412e-05      8.88774      137.189 
0.000194427      2.92746      119.017 
5.13048e-05      8.04114      148.010 
0.000111004      4.86477      146.571 
1.80554e-05     0.640312      128.660 
0.000113336      4.07578      156.580 
0.000144136      10.9953      131.460 
0.000263074      2.63188      168.605 
6.63711e-05      11.7691      144.825 
0.000185514      2.93557      160.084 
5.52100e-05      3.44471      151.947 
0.000230312      11.9369      142.420 
8.94079e-06      4.12800      143.075 
4.93652e-05      1.07703      148.671 
4.98171e-05     0.404475     -8.53077 
5.00295e-05      6.40078      142.235 
6.57743e-05      4.12412      138.736 
3.38485e-05     0.652993      130.030 
8.75866e-06      2.38076      148.046 
8.10892e-05      1.28996      172.875 
2.55243e-05      2.32078      128.351 
6.21418e-05      8.92480      149.124 
2.40686e-05      6.94400      143.196 
2.45313e-05      11.6882      141.600 
8.65384e-06     0.367696      157.620 
8.64418e-06      6.21859      148.815 
3.24001e-05      4.11203      142.907 
2.32321e-05      5.34973      144.587 
3.97923e-05      11.8292      139.388 
8.55215e-06      7.85493      148.536 
8.55833e-06      3.67619      153.853 
4.39630e-05      8.10069      147.605 
2.49917e-05      3.98362      147.507 
2.47411e-05      2.82991      128.976 
0.000177860      7.18802      143.258 
6.31625e-05      5.66286      141.309 
5.99838e-05      3.14229      140.942 
0.000113065      11.4956      131.120 
3.16557e-05      1.38622      136.169 
9.50748e-05      8.95350      144.180 
-0.000250444      1.84716      160.388 
2.18446e-05      2.11632      149.315 
4.68188e-05      5.28946      148.293 
4.84282e-05      5.85549      148.264 
3.77370e-05      1.93794      121.065 
0.000133876      7.15329      142.041 
4.44814e-05      1.67523      123.311 
0.000159460      2.23007      124.403 
2.25292e-05      8.36612      147.298 
1.53612e-05     0.989950      171.870 
4.27369e-05      4.59778      154.215 
6.55499e-05      6.18081      149.036 
5.12659e-05      4.34166      141.546 
0.000119123      3.42812      138.311 
0.000108580      5.14513      144.333 
7.36768e-05     0.666033      131.348 
9.08733e-05      4.00050      147.661 
7.98333e-06      3.31210      151.113 
7.12450e-05      11.8520      134.316 
0.000194747      11.7773      132.522 
0.000148208      10.1789      132.372 
7.91420e-06      6.87285      146.634 
2.79532e-05      1.65602      142.853 
5.49143e-05      3.64944      153.997 
3.34337e-05      5.68084      150.005 
4.09284e-05      12.4889      135.843 
-0.000227662    0.0565685     -45.0000 
6.39819e-05      1.11893      118.856 
7.79710e-06      7.84451      148.660 
3.55197e-05     0.604649      145.784 
1.50273e-05      2.91678      159.950 
7.69097e-05      6.95793      147.680 
8.93311e-05      6.42884      142.203 
5.60985e-05      8.05811      148.085 
0.000120650     0.401995     -5.71059 
6.31982e-05      8.36531      144.144 
1.43894e-05      5.47244      150.437 
2.69154e-05     0.602993      95.7106 
4.15363e-05      4.81340      141.749 
2.18003e-05      2.81737      128.660 
8.28460e-05      6.07322      153.182 
5.53970e-05      4.13734      138.527 
7.47598e-06      1.61839      129.987 
5.16097e-05      11.6601      141.616 
0.000142381      11.7528      144.768 
2.74626e-05      2.14709      154.628 
7.33886e-06      1.04957      149.036 
0.000148441      11.2492      142.295 
1.36918e-05      3.34401      143.267 
1.95173e-05      3.34521      153.741 
1.38574e-05      5.20311      146.127 
9.42982e-05      11.7447      136.932 
3.16559e-05      7.85124      148.861 
6.27510e-05      4.35734      141.710 
2.01787e-05      5.57487      146.709 
5.00717e-05      7.18493      147.504 
1.41123e-05      5.69098      141.277 
8.51793e-05      7.47053      149.247 
9.67130e-05      1.06677      149.589 
7.15469e-06      1.48499      134.454 
1.41982e-05      10.5785      135.306 
2.72638e-05      5.27246      148.179 
3.81544e-05      4.12412      142.686 
2.08099e-05      9.68390      130.896 
5.10041e-05      1.37594      122.535 
-0.000146312      6.59412      151.958 
2.50495e-05      4.47303      152.289 
1.28543e-05      2.35321      148.201 
5.39531e-05      11.8574      139.378 
2.00799e-05      1.60312      130.446 
0.000172006      10.5927      135.382 
7.07115e-05      1.06527      129.668 
5.91674e-05      4.61580      154.323 
4.53312e-05      10.7355      141.657 
8.76631e-05      9.50621      133.636 
3.78297e-05      9.09587      136.336 
1.32322e-05      6.92800      143.097 
8.73799e-05      5.67539      141.151 
8.73343e-05      3.04454      132.071 
1.74148e-05      3.43890      137.121 
2.99704e-05      2.37697      141.491 
6.82069e-06      4.46327      153.090 
5.79334e-05      1.37244      136.771 
2.38916e-05      12.1778      135.865 
1.31687e-05      2.65940      150.736 
6.76559e-06      1.45602      127.185 
1.90995e-05     0.970155      171.703 
5.48084e-05     0.679412      132.614 
6.74262e-06     0.310483     -165.069 
3.67321e-05      2.77683      128.273 
7.89533e-05      8.93508      149.014 
4.66787e-05      3.41321      148.173 
-0.000107346      6.77153      138.352 
6.92666e-05      11.5728      140.892 
7.05958e-05      9.71212      130.908 
5.67013e-05      3.82099      137.121 
1.25020e-05      1.83216      126.119 
5.37438e-05      11.4191      133.084 
1.77976e-05      5.79672      138.777 
1.85692e-05      3.42707      151.790 
8.89348e-05      11.5335      145.456 
6.06371e-05     0.184391      139.399 
3.41425e-05      2.08586      145.548 
6.20804e-05      1.90032      120.343 
3.47577e-05      8.07111      141.540 
5.63274e-05      12.2398      133.080 
1.87424e-05      4.14946      146.999 
2.13849e-05      1.63670      122.525 
6.39446e-06      2.12151      134.236 
4.52205e-05     0.295296      61.6992 
6.13802e-05      10.6641      134.240 
1.24652e-05      7.92550      140.324 
3.63581e-05      3.18496      168.408 
1.79567e-05      3.14859      152.784 
3.43466e-05      5.26194      148.364 
5.03103e-05      1.57493      130.365 
2.42112e-05     0.841190      108.004 
4.41912e-05     0.362215      83.6598 
3.35980e-05      5.75142      152.900 
1.21665e-05     0.331059     -154.983 
6.07016e-05      11.8659      134.385 
1.81423e-05      5.26866      152.657 
2.79486e-05      8.85948      137.196 
6.14237e-06      4.12180      147.081 
4.40686e-05      4.48237      152.063 
4.92341e-05      4.16557      138.504 
1.78525e-05      6.73243      142.483 
3.87023e-05      11.0053      142.235 
6.02416e-05      11.6235      129.414 
8.09216e-05      8.07510      148.160 
2.23205e-05      3.92703      154.348 
-9.85087e-05      11.1315      140.102 
1.17938e-05      4.79771      141.601 
2.77903e-05     0.588218      144.689 
9.17422e-05      4.47897      158.246 
3.24812e-05      3.11178      136.042 
1.17871e-05      2.13588      133.862 
4.33481e-05      9.53184      134.830 
2.72240e-05      5.46260      150.619 
5.92579e-05      2.93721      119.358 
5.94072e-06      1.66817      142.306 
3.72514e-05      5.33344      144.462 
1.14028e-05      3.35678      151.144 
-4.87734e-05      12.5784      140.031 
5.89675e-06      2.30217      129.359 
7.43897e-05      5.43065      135.298 
5.38147e-05      4.13270      146.848 
5.86806e-06      1.81373      131.424 
5.30647e-05      10.7199      141.591 
3.16637e-05      1.57099      121.464 
5.83758e-06      2.64197      150.524 
2.12401e-05      7.93829      140.213 
5.82834e-06      3.71828      139.800 
1.14634e-05      4.96036      140.727 
4.17343e-05      9.10969      136.245 
2.71011e-05      11.4082      129.523 
-0.000100431      7.98223      146.031 
1.58865e-05      5.59160      146.821 
7.87509e-05      3.16538      168.335 
1.59294e-05      3.11416      140.995 
2.64634e-05      5.27788      152.464 
2.65848e-05      8.14518      147.637 
4.21037e-05      5.12519      153.835 
5.70625e-06     0.322490     -150.255 
1.62644e-05     0.313050      26.5651 
1.58029e-05      9.97729      138.738 
2.67932e-05      3.64071      154.280 
-1.12596e-05      9.31944      138.132 
2.58741e-05     0.721388      133.877 
3.15078e-05      1.68404      142.722 
2.62847e-05      2.14979      134.246 
3.12081e-05      6.71658      142.379 
1.57565e-05      4.48112      153.206 
1.58524e-05      6.19112      148.878 
3.11578e-05      5.25090      152.557 
1.59398e-05      4.15061      138.321 
-5.19842e-05      12.2978      139.419 
2.09073e-05     0.950368      171.529 
5.56223e-06      3.67483      139.635 
5.53773e-06      6.63231      140.261 
1.58837e-05      1.42562      124.136 
3.62290e-05      3.25853      159.897 
1.56649e-05      11.6973      143.973 
-6.68773e-05      9.34768      138.122 
5.14477e-05      9.64915      140.635 
3.09475e-05     0.332866     -147.265 
2.57769e-05      4.94490      140.580 
2.54537e-05     0.282843     -171.870 
3.07539e-05      7.16807      147.418 
2.06042e-05      2.16924      112.782 
2.09729e-05      2.90998      119.208 
2.05305e-05      4.37922      129.068 
5.36182e-06      2.62458      150.309 
1.04864e-05      3.17553      152.628 
5.34789e-06      5.17536      146.187 
1.54329e-05      7.86837      148.936 
5.31858e-06      6.43792      140.673 
1.01887e-05      4.13628      142.465 
1.52361e-05      2.74875      128.204 
2.52869e-05      11.4054      133.010 
1.54564e-05     0.305287     -31.6075 
1.00592e-05      3.64664      139.671 
2.00911e-05      1.14612      119.249 
1.02345e-05      6.64512      140.128 
-2.01102e-05      4.29958      135.754 
5.20510e-06      4.78205      141.452 
3.01676e-05      2.62800      169.032 
-1.01863e-05      11.0235      138.530 
9.95221e-06     0.610574      121.608 
5.18018e-06      1.46328      169.765 
1.02274e-05      2.34273      148.617 
5.13217e-06     0.342345      83.2902 
1.97989e-05      11.8726      139.441 
1.99137e-05     0.421900     -5.44033 
-5.11151e-06      12.5631      139.973 
5.11000e-06      8.08678      141.628 
9.92950e-06      1.55641      154.093 
-2.47791e-05      10.3822      133.907 
9.97993e-06      8.94181      144.284 
1.97755e-05      1.08407      150.124 
5.03449e-06      11.6493      139.665 
1.47696e-05      1.45986      170.538 
9.90299e-06      5.69818      150.105 
1.95284e-05      9.22477      131.396 
4.97860e-06      11.5238      131.130 
1.46648e-05     0.288444     -33.6901 
4.96536e-06      3.33928      150.979 
4.95491e-06      6.08713      139.664 
4.95714e-06      9.72724      130.831 
-9.75152e-06      12.4779      139.160 
9.76371e-06      5.76923      152.991 
4.93351e-06      4.66347      140.918 
4.92464e-06      5.41970      146.896 
9.71172e-06      9.92274      131.077 
9.67052e-06      3.40270      148.459 
9.66501e-06      11.3801      129.509 
4.87834e-06      3.63208      154.564 
4.84249e-06      6.39431      140.585 
4.85142e-06      4.02810      147.572 
-9.64803e-06      11.1469      140.168 
4.83972e-06      4.83707      146.638 
4.82359e-06     0.601332      93.8141 
4.80804e-06      7.13753      141.942 
4.79994e-06      2.60461      169.380 
4.79504e-06      8.84590      137.291 
4.78010e-06      9.53448      133.640 
4.76942e-06      4.58912      154.440 
4.34373e-05      1.35794      133.807 
0.000102998      3.16746      145.808 
2.10794e-05      1.38622      133.831 
2.06745e-05      1.47187      132.797 
2.02831e-05      1.54311      132.374 
1.99837e-05      1.13172      136.432 
1.97599e-05      1.74230      131.743 
1.94321e-05      1.10345      136.469 
1.94023e-05      3.13968      145.905 
3.80667e-05      1.82702      131.894 
1.90424e-05      2.67372      141.072 
3.73614e-05      3.31186      147.078 
1.84066e-05      2.36516      138.085 
1.82078e-05      1.78550      131.367 
1.81103e-05      3.38999      147.529 
5.27395e-05      1.00499      137.420 
1.78774e-05      2.51213      139.844 
0.000102383      5.55899      147.339 
3.49823e-05      3.49588      147.856 
1.74185e-05      1.87019      131.532 
3.35814e-05      2.59915      140.307 
1.70087e-05      1.82877      131.009 
1.68910e-05      3.62944      148.062 
3.32285e-05     0.976729      137.490 
1.67742e-05      2.52507      139.497 
1.65269e-05      3.67396      148.127 
3.20522e-05      1.77460      129.971 
1.61644e-05      3.70151      148.027 
1.60455e-05     0.948472      137.564 
4.71525e-05      5.53137      147.402 
1.59426e-05      2.39207      137.372 
1.58351e-05      3.71849      148.191 
4.37577e-05     0.963328      138.366 
1.56195e-05      2.87618      143.768 
1.54847e-05      1.78997      129.560 
1.54626e-05      3.76303      148.253 
1.52680e-05      2.40566      137.021 
1.51569e-05      3.80757      148.314 
3.00057e-05      5.52062      147.577 
1.51083e-05      1.77730      129.063 
5.76944e-05     0.935094      138.468 
1.49824e-05      3.06992      148.588 
1.48334e-05      1.80544      129.155 
1.47766e-05      3.83510      148.216 
1.47249e-05      2.51984      137.573 
1.46141e-05      5.50374      147.465 
1.44889e-05      3.85212      148.373 
1.44749e-05      1.79287      128.660 
1.44337e-05      3.07903      151.271 
2.84909e-05      6.68003      145.120 
1.43420e-05      2.46089      135.659 
5.56587e-05      5.49301      147.641 
5.57842e-05      2.59268      168.430 
1.41583e-05      1.70857      128.346 
1.40912e-05      3.07766      152.103 
2.77816e-05      3.89667      148.431 
1.40310e-05      2.44663      134.669 
2.75640e-05      6.70788      145.078 
1.38990e-05     0.991564      138.270 
1.38281e-05      1.76816      127.648 
1.37648e-05      2.65932      136.219 
1.35642e-05      2.41868      133.995 
1.35365e-05      3.05895      153.602 
2.67704e-05      1.64012      127.569 
7.63984e-05      6.72428      145.176 
1.34128e-05      2.58874      168.864 
1.33806e-05      3.91372      148.584 
1.33151e-05      2.63059      134.384 
3.89722e-05      5.48234      147.817 
0.000442075      2.56531      169.216 
1.32345e-05      6.69645      145.218 
1.32051e-05      3.06809      154.103 
1.30668e-05      3.94122      148.488 
1.30774e-05      2.58898      133.435 
2.58288e-05      1.65602      127.147 
1.29447e-05     0.835464      137.911 
1.29094e-05      3.01582      155.304 
1.28248e-05      2.66008      133.172 
1.27663e-05      3.94791      148.887 
1.26423e-05      2.68835      133.191 
1.26020e-05      3.03401      155.462 
1.25753e-05      1.71604      126.469 
1.24902e-05     0.707672      137.291 
2.47271e-05      3.98221      149.184 
1.24820e-05      5.45476      147.883 
1.24304e-05      2.28219      131.091 
3.58985e-05      1.14630      137.121 
1.23698e-05      3.01761      156.153 
1.23012e-05      2.74591      132.639 
1.22381e-05      5.47171      147.995 
1.22422e-05      1.66012      126.180 
1.21426e-05     0.679412      137.386 
1.21140e-05      2.73240      132.330 
1.21005e-05      3.00167      156.852 
1.20477e-05      1.63218      126.027 
1.20580e-05      5.99847      144.773 
1.19569e-05      4.01662      149.477 
1.19213e-05      2.71897      132.019 
2.34486e-05      6.78498      145.326 
1.19167e-05      5.44415      148.062 
1.18295e-05      2.11783      129.251 
1.18357e-05      3.07044      155.772 
1.17803e-05     0.651153      137.490 
1.17269e-05      6.76854      145.230 
1.17010e-05      1.60424      125.870 
1.16818e-05      4.02378      149.867 
1.17076e-05      2.76210      131.771 
1.16890e-05      5.46114      148.173 
1.16082e-05      3.02794      156.652 
1.15165e-05      2.74882      131.460 
1.14925e-05      4.04851      150.396 
1.14725e-05      5.43360      148.241 
1.14970e-05      1.66469      125.218 
1.14467e-05     0.594643      137.726 
2.25293e-05      6.02163      144.462 
1.13514e-05      2.18687      129.806 
1.13718e-05      3.05424      156.457 
3.16755e-05      1.21655      136.332 
1.12909e-05      6.82926      145.379 
1.12807e-05      2.79206      131.225 
1.12561e-05      4.08333      150.673 
2.21209e-05      5.42310      148.420 
3.30301e-05      1.65324      124.651 
3.29543e-05      3.04631      156.801 
0.000267261      9.67359      134.497 
1.11423e-05     0.551725      136.469 
1.11150e-05      2.80713      130.956 
1.10469e-05      4.11825      150.945 
2.18177e-05      6.84573      145.474 
2.17960e-05      2.79407      130.646 
2.17203e-05      9.68762      134.582 
1.09649e-05      1.17456      137.070 
0.000159269      11.8576      144.889 
2.15407e-05     0.523450      136.548 
1.08710e-05      1.69753      124.439 
1.08240e-05      4.15326      151.213 
1.07558e-05      5.97746      144.395 
2.12218e-05      5.41265      148.601 
1.06950e-05      2.80927      130.380 
1.06333e-05      11.8412      144.834 
1.05965e-05      4.16125      151.587 
2.09874e-05      3.10696      156.075 
1.06093e-05      2.18961      129.068 
1.05505e-05      6.89002      145.526 
1.05041e-05      2.82454      130.117 
4.99004e-05      11.8528      144.755 
1.04798e-05      1.58114      124.695 
1.04804e-05      5.98912      144.240 
1.04641e-05     0.466905      136.736 
1.03939e-05      4.01103      145.359 
1.03587e-05      1.62542      124.472 
2.06005e-05      2.81169      129.806 
2.04389e-05      5.39192      148.963 
1.02963e-05      6.92303      145.713 
1.03268e-05      1.16103      137.793 
1.02585e-05      3.09890      156.413 
1.02402e-05      4.21412      151.975 
1.02087e-05     0.438634      136.848 
1.01957e-05      5.97291      144.128 
1.00882e-05      2.21775      129.144 
1.94126e-05      1.18929      137.726 
2.00090e-05      3.09095      156.753 
1.82547e-05      6.93957      145.806 
5.78131e-05      11.8364      144.699 
2.97747e-05      2.85524      129.600 
1.00894e-05      4.20476      152.216 
1.98561e-05     0.410366      136.975 
1.98515e-05      1.61419      123.887 
9.97210e-06      5.98465      143.973 
9.91040e-06      4.22246      152.343 
9.90055e-06      5.38164      149.146 
4.54839e-05      9.68787      134.415 
2.73064e-05      6.98390      145.855 
9.77682e-06      4.04544      144.660 
1.94062e-05      3.11724      156.560 
9.73798e-06      5.40907      149.073 
9.68817e-06      2.20518      128.741 
9.69028e-06      5.96848      143.860 
9.65110e-06      1.20283      137.021 
9.63083e-06      7.03363      146.129 
2.85604e-05      2.87068      129.346 
9.61285e-06      4.25793      152.592 
1.91248e-05      1.64754      123.111 
1.90410e-05     0.382099      137.121 
9.55410e-06      5.39881      149.255 
9.49352e-06      7.50267      147.962 
9.49348e-06      5.98030      143.705 
9.49067e-06      3.14356      156.371 
9.45333e-06      4.27570      152.716 
9.35777e-06      4.05704      144.429 
9.36458e-06      5.41601      149.363 
9.33100e-06      7.51963      148.043 
9.34792e-06      3.17805      155.854 
1.84570e-05      11.8317      144.564 
9.28991e-06      5.94811      143.477 
1.81456e-05      2.22081      128.418 
9.24848e-06     0.353836      137.291 
9.20698e-06      7.56415      148.075 
9.21049e-06      1.61988      122.905 
9.23592e-06      3.16992      156.184 
9.20728e-06      4.28439      153.076 
9.23571e-06      2.88617      129.094 
9.14563e-06      5.40585      149.545 
1.78550e-05      1.21754      137.663 
9.13177e-06      5.97609      143.437 
9.09738e-06      2.87360      128.784 
1.80476e-05      1.66433      122.735 
9.09586e-06      3.13560      156.705 
9.06205e-06      4.06871      144.200 
9.00178e-06      11.6680      143.012 
3.49404e-05      7.58113      148.155 
8.96396e-06      5.93205      143.362 
8.96460e-06      2.90172      128.845 
1.78222e-05      4.30223      153.197 
8.96842e-06      5.39574      149.728 
8.94250e-06      3.23098      155.497 
8.89055e-06      1.23110      136.975 
8.83569e-06      2.91733      128.598 
8.81743e-06      3.16190      156.516 
8.83637e-06      11.6641      142.875 
8.80408e-06      5.42310      149.652 
1.73800e-05      5.94401      143.207 
8.75230e-06      4.06428      143.807 
8.89263e-05      11.8691      144.810 
8.70898e-06      7.00046      145.947 
1.73240e-05      2.88922      128.536 
8.70695e-06      3.18823      156.329 
8.66492e-06      1.68119      122.367 
8.64148e-06      5.41302      149.835 
8.63106e-06      4.32009      153.316 
8.62515e-06      11.6444      142.677 
2.54406e-05      10.7202      142.809 
1.70242e-05      1.65360      122.152 
8.59568e-06      3.37242      154.347 
8.49301e-06      4.09224      143.746 
8.49015e-06      2.23652      128.100 
8.50039e-06      3.08629      157.923 
1.68411e-05      1.20416      138.366 
8.46240e-06      5.92800      143.091 
8.43086e-06      2.93298      128.355 
8.44262e-06      5.40300      150.018 
1.67254e-05      4.31115      153.554 
8.41741e-06     0.284253      140.711 
8.37868e-06      11.6528      142.461 
8.38454e-06      3.12000      157.380 
0.000189297      11.8663      130.968 
8.32231e-06      2.90489      128.290 
3.91276e-05      8.73746      147.147 
8.31695e-06      5.43032      149.941 
2.46290e-05     0.256125      141.340 
-0.000193541     0.652993      27.3499 
1.63601e-05      1.67057      121.787 
8.26747e-06      7.62567      148.186 
8.24212e-06      3.18025      156.659 
8.24167e-06      2.26460      128.186 
8.21520e-06      4.12019      143.686 
6.18579e-05      10.7042      142.745 
2.42475e-05      2.92062      128.047 
8.15440e-06      1.62604      121.931 
8.16904e-06      3.39046      154.493 
2.39193e-05      5.42033      150.124 
8.13336e-06      11.6492      142.323 
1.61733e-05      4.37379      153.669 
8.11535e-06      1.23240      138.289 
1.60673e-05      5.92409      142.821 
5.28902e-05      7.64267      148.265 
1.56245e-05      3.11236      157.720 
8.02095e-06     0.228035      142.125 
7.99447e-06      2.28035      127.875 
1.57240e-05      1.21918      138.991 
7.94514e-06      3.14617      157.184 
7.92995e-06      4.17612      143.569 
7.94512e-06      11.6456      142.185 
1.55750e-05      1.66012      121.201 
1.56657e-05      4.39172      153.785 
7.84376e-06      2.90833      127.737 
1.49060e-05      6.96735      145.763 
1.53029e-05      3.17238      156.991 
7.81272e-06      1.64305      121.562 
2.29698e-05      5.90816      142.703 
1.54770e-05     0.212603      138.814 
7.75105e-06      2.30842      127.962 
2.90319e-05      3.13847      157.521 
1.52829e-05      11.6544      141.970 
1.53120e-05      2.93639      127.807 
7.70164e-06      4.22019      143.673 
2.18298e-05      8.70981      147.186 
7.65541e-06      3.43517      154.479 
7.64878e-06      5.41040      150.308 
2.25249e-05      4.40967      153.900 
2.88830e-05      1.26063      138.215 
1.48902e-05      6.95083      145.670 
1.47571e-05      2.29617      127.569 
7.53502e-06      4.26427      143.775 
1.46817e-05      1.64985      120.606 
7.23971e-05      7.68721      148.295 
7.49236e-06      5.45505      150.333 
2.20979e-05      2.95222      127.569 
1.47423e-05      1.63267      120.964 
7.38377e-06      5.89227      142.586 
2.72819e-05      1.24740      138.900 
7.37757e-06      11.6510      141.832 
7.38208e-06      2.32422      127.659 
7.33850e-06      5.42778      150.412 
7.33741e-06      4.29223      143.717 
7.28229e-06      3.45323      154.622 
2.14647e-05      4.42764      154.014 
7.24677e-06      5.87639      142.467 
7.18620e-06      11.6477      141.694 
7.16145e-06      4.32019      143.661 
4.11984e-05      10.6883      142.680 
7.14264e-06      2.96810      127.333 
2.09448e-05      5.88860      142.313 
7.08872e-06      3.19862      156.801 
7.05105e-06      1.66709      120.256 
1.39085e-05     0.128062      141.340 
7.04179e-06      2.94007      127.260 
3.20608e-05      3.13088      157.859 
1.38439e-05      4.34815      143.604 
1.37595e-05      2.34009      127.360 
3.29476e-05      2.54566      169.131 
6.93275e-06      4.97618      145.480 
6.90718e-06      4.41891      154.247 
2.67167e-05      1.65711      119.659 
2.04506e-05      2.98402      127.100 
6.92066e-06      3.42660      154.781 
6.87887e-06      5.59893      150.230 
6.85315e-06      1.68440      119.914 
1.34612e-05      3.16462      157.324 
3.24368e-05      8.75427      147.218 
1.35470e-05      4.44563      154.127 
1.96979e-05      6.93432      145.577 
4.61445e-05     0.141421      135.000 
6.74445e-06      5.62622      150.154 
6.71385e-06      5.87278      142.193 
6.72257e-06      11.6568      141.478 
6.68552e-06      4.39222      143.704 
6.64511e-06      2.32800      126.968 
6.62869e-06      4.46363      154.239 
1.94622e-05      5.85700      142.074 
6.59140e-06      5.56176      150.485 
1.29810e-05      3.00000      126.870 
2.56076e-05      9.64531      134.496 
6.57475e-06      3.52460      154.453 
6.55804e-06      11.6537      141.340 
6.55360e-06      4.89902      145.142 
6.50897e-06      2.35601      127.064 
1.28904e-05      4.43694      154.359 
3.72847e-05      10.6724      142.615 
6.47193e-06      3.02800      126.946 
1.90316e-05      4.37612      143.549 
6.42959e-06      5.63368      150.432 
6.43125e-06      11.6662      141.263 
1.27000e-05     0.113137      135.000 
6.39002e-06      1.67451      119.320 
6.36483e-06      1.27562      138.814 
6.32044e-06      5.66095      150.356 
1.25522e-05      2.34401      126.674 
1.84057e-05      3.56931      154.440 
1.24552e-05      3.04401      126.719 
6.28101e-06      11.6602      140.987 
2.42961e-05      1.26254      139.497 
1.24764e-05      4.48165      154.350 
1.22411e-05      4.91048      144.951 
6.27428e-06      1.69198      118.989 
6.25784e-06      9.63130      134.411 
1.23890e-05      5.86931      141.920 
6.24114e-06     0.156205      129.806 
6.17590e-06      3.10483      158.062 
4.79612e-05     0.128062      128.660 
6.17300e-06      11.6631      141.125 
6.16482e-06      1.64730      119.055 
6.17633e-06      5.68823      150.280 
6.12453e-06      6.91783      145.483 
1.79258e-05      2.37200      126.773 
2.37354e-05      10.2194      132.621 
1.20852e-05      4.49969      154.460 
1.20415e-05      3.06007      126.495 
6.07815e-06      5.59661      150.687 
6.07424e-06      4.40409      143.494 
2.37306e-05      1.66481      118.720 
1.19203e-05      3.09742      158.405 
6.05987e-06      9.61703      134.494 
1.19707e-05      11.6643      140.496 
6.03158e-06      11.8644      131.104 
1.19687e-05      5.85358      141.799 
6.00620e-06      11.8988      136.703 
6.00226e-06      8.77109      147.288 
1.76384e-05      9.54645      134.406 
5.91293e-06      5.61405      150.787 
5.91116e-06      4.36005      143.393 
5.89262e-06      4.47303      154.581 
1.17168e-05      3.07617      126.274 
5.88329e-06      8.79873      147.249 
1.16685e-05      10.6565      142.549 
1.16236e-05      11.9125      136.633 
5.86187e-06      6.94565      145.440 
1.15863e-05      7.70423      148.373 
5.83465e-06      5.83788      141.677 
5.80406e-06      4.51774      154.569 
5.81502e-06      5.70561      150.380 
5.77696e-06      11.6572      140.849 
5.77988e-06      3.61403      154.428 
5.77440e-06      4.43206      143.440 
5.74821e-06     0.144222      123.690 
