! Center RA: 22 32 36.40891,  Dec: +11 43 50.90394 (2000.0)
! Tentative model.
! Flux (Jy) Radius (mas)  Theta (deg)  Major FWHM (mas)  Axial ratio   Phi (deg) T \
! Freq (Hz)     SpecIndex
-0.0343077    0.0282843     -45.0000 
-0.0188749      0.00000      0.00000 
-0.00545506    0.0200000     -90.0000 
-0.00154108    0.0200000      180.000 
-0.000376942    0.0848528      135.000 
-0.000515563     0.100000      126.870 
-0.000174779     0.113137      135.000 
-0.00211107    0.0565685     -45.0000 
-0.00144280     0.116619      120.964 
-0.00160553     0.134164      116.565 
-0.00150340    0.0848528     -45.0000 
-0.000264361    0.0447214     -63.4349 
-0.000173842    0.0400000     -90.0000 
-0.000259433     0.126491      108.435 
-0.000306512     0.100000      180.000 
-0.00305033     0.145602      105.945 
-0.000364746     0.128062     -38.6598 
-0.000259023     0.120000      180.000 
-0.000317551     0.188680     -32.0054 
-0.000374282    0.0824621     -165.964 
-0.000375487     0.250599     -28.6105 
-5.81767e-05     0.524976      139.635 
-0.000780324     0.672309      120.379 
-0.000399217     0.538145      138.013 
-0.000531540     0.523450      136.548 
-0.000667449    0.0721110     -56.3099 
-0.000287493     0.509902      115.560 
-0.000782479     0.699714      120.964 
-0.000464193     0.268328     -26.5651 
-0.000216838     0.101980     -168.690 
-0.000255186     0.501597      113.499 
-4.22377e-05     0.140000      180.000 
-7.31129e-05     0.160000      180.000 
-7.11076e-05     0.121655     -170.538 
-0.000330120     0.491935      116.565 
-0.000286941     0.313050     -26.5651 
-0.000159466      9.72868      148.107 
-6.34092e-05     0.180000      180.000 
-0.000345010      1.64839      144.382 
-0.000112224     0.537401      135.000 
-0.000189093      9.71813      148.207 
-5.75412e-05     0.141421     -171.870 
-0.000137563      7.62758      145.685 
-5.36950e-05     0.689638      119.539 
-0.000323901     0.331059     -25.0169 
-0.000341596      6.34895      149.315 
-2.67887e-05     0.200000      180.000 
-9.68561e-05      9.81315      146.893 
-2.62303e-05      7.67190      145.730 
-7.30422e-05     0.161245     -172.875 
-0.000482164     0.551725      136.469 
-0.000318676      7.65538      145.646 
-0.000115219      9.84083      146.859 
-0.000210275      5.85700      150.546 
-9.45406e-05      1.60424      144.130 
0.000181754      1.82779      113.199 
0.000452119      4.02959      158.146 
-0.000448294      1.07703      164.932 
-0.000260004      5.87442      150.642 
-4.60535e-05     0.662420      118.887 
-0.000180679      9.73513      148.269 
0.000107166      1.94196      122.381 
-0.000288931      1.69056      154.041 
-6.51024e-05      1.58808      143.707 
-2.18032e-05      5.06952      148.881 
-4.25785e-05      6.05392      149.199 
-0.000341855      5.12675      145.008 
-0.000305901      10.0791      146.657 
-8.03387e-05     0.181108     -173.660 
-0.000117486      5.05241      148.764 
-0.000134660      1.54402      143.427 
-0.000152054      6.84763      151.189 
0.000166236      1.82000      112.620 
-0.000152187      9.82991      146.957 
0.000253600      1.95274      122.876 
-0.000137842      6.03675      149.101 
-0.000124960      7.43303      146.524 
-0.000177843      1.67260      153.741 
0.000202238      1.58152      122.082 
-7.52749e-05      9.22364      152.213 
0.000232789      11.0015      153.435 
-5.52632e-05      5.84719      150.717 
-3.10417e-05     0.896437      128.660 
-0.000202055      7.20003      146.442 
-0.000307328     0.909065      129.644 
-0.000337663      1.96987      138.705 
-0.000224846      8.81283      148.077 
-0.000174912      6.37636      149.252 
-5.24804e-05      10.8784      145.638 
-0.000239904      4.12412      138.736 
-0.000208936      9.25066      152.161 
-0.000101200     0.553173      139.399 
3.49639e-05      11.0982      151.357 
-0.000118945      6.15653      151.687 
-5.71107e-05      6.72952      151.607 
-0.000205639     0.493964      111.371 
-0.000343116      1.50000      143.130 
-0.000278318      11.0947      144.390 
-8.09025e-05      5.06281      148.570 
-0.000276573      10.6190      152.277 
-7.53150e-05      6.74712      151.688 
-0.000121530     0.200998     -174.289 
-0.000111630      4.82170      163.369 
-6.24867e-05      6.85729      151.043 
-0.000399824      9.01237      150.192 
0.000163643      11.1158      151.406 
-1.66522e-05      4.06596      146.232 
-0.000186775      1.09636      165.203 
-6.21199e-05      10.8837      145.784 
-0.000256309      4.78953      159.976 
0.000304159      1.80155      112.865 
-0.000222586      6.66363      145.022 
-0.000105198      6.20000      143.130 
-3.16461e-05      9.56069      150.002 
-0.000139652      9.07606      143.332 
-0.000107969      4.15235      138.710 
-0.000116318      2.12462      157.297 
-0.000191309      9.55071      150.106 
-3.04098e-05      8.17083      146.582 
-1.55681e-05      4.04935      146.074 
0.000559669      4.04816      158.251 
-0.000172656      1.05262      141.170 
-8.29295e-05      7.41636      146.438 
4.50286e-05      2.27403      129.289 
-2.97459e-05      7.69969      145.691 
-0.000163550      11.0654      152.555 
-2.93952e-05      5.82975      150.621 
-0.000159652      7.38864      146.482 
-8.95495e-05      4.02751      145.521 
-2.90732e-05      6.64677      154.514 
-6.58740e-05     0.349285     -23.6294 
-2.76416e-05      9.75215      148.331 
-1.47254e-05      6.83371      153.960 
-0.000349549      4.84087      163.437 
-4.22836e-05      6.17414      151.775 
-5.64060e-05      5.10078      148.304 
-9.03343e-05      9.21826      150.209 
0.000248323      2.43023      140.677 
0.000130979      2.25858      129.611 
-6.42543e-05      6.85169      154.033 
0.000215495      1.60910      122.307 
-5.20949e-05      8.18753      146.659 
-0.000154745      10.8671      145.725 
-0.000136619      9.26835      152.218 
1.37029e-05      1.96367      123.366 
-3.85523e-05      6.01960      149.004 
-1.36411e-05      6.22800      143.093 
-1.36315e-05      6.86699      150.897 
-8.79636e-05      6.62012      154.596 
-1.35666e-05      7.74400      145.735 
-0.000188106      6.21202      142.983 
0.000117711      1.93598      123.198 
-0.000103139      5.12831      148.231 
-1.31639e-05      7.77179      145.697 
-4.96307e-05      6.88448      150.978 
-7.03024e-05      9.85759      146.923 
-3.80427e-05      10.1005      143.697 
-2.55801e-05      5.89647      151.870 
-5.04894e-05      1.37361      132.049 
-0.000101817      4.81041      147.565 
0.000150708      11.1429      151.365 
-6.06384e-05      7.81611      145.741 
-5.93955e-05      4.80267      150.018 
-4.63283e-05      1.63218      143.973 
-9.42663e-05      3.92245      168.232 
-0.000119361      10.0681      146.752 
-8.10177e-05      1.68155      153.130 
-0.000103104      5.83959      150.450 
-0.000171693     0.475395      112.249 
-7.50104e-05      5.87884      151.778 
4.52110e-05      2.05251      123.071 
0.000259299      3.44006      142.797 
-9.12469e-05      1.38708      132.663 
-9.76200e-05      2.32998      168.111 
-3.47373e-05      10.1123      143.606 
0.000256799      2.99767      155.145 
-6.18515e-05      11.0746      152.463 
0.000159673     0.444072      7.76517 
-0.000153298      11.0569      152.415 
-5.05562e-05      6.87843      153.956 
-0.000177989      9.04807      143.358 
-9.98130e-05      6.02651      149.265 
-1.16867e-05      3.25085      161.342 
-1.15442e-05      9.76918      148.392 
-0.000172977      9.52019      142.769 
-0.000177630      3.27622      161.123 
0.000113456     0.420476      154.654 
-1.13047e-05      1.95489      138.318 
-5.36697e-05      7.84390      145.702 
-8.24758e-05      6.60206      154.522 
-1.11887e-05      9.90808      145.444 
-7.09516e-05      2.29965      164.876 
-0.000135044      10.1252      152.979 
-5.82792e-05      6.89420      150.832 
-0.000190503      1.98313      138.270 
-0.000133100      3.81602      163.560 
-6.35385e-05      10.4036      154.371 
-6.92817e-05     0.360555     -19.4400 
-4.14417e-05      9.89161      145.378 
-1.08404e-05      3.94614      168.007 
5.21675e-05      5.08496      161.423 
-0.000196879      4.26863      165.899 
-0.000112320      10.0963      143.539 
-8.76844e-05      9.28605      152.276 
-2.09354e-05      6.13892      151.598 
1.06735e-05      5.09137      161.209 
-5.89839e-05      4.82000      150.137 
-0.000140264      3.62679      173.032 
-7.72721e-05      3.94203      168.291 
-2.03404e-05      8.17655      146.776 
-7.04137e-05      1.40071      133.264 
0.000113871      2.71662      173.660 
0.000121042      3.95353      152.916 
-1.04785e-05      4.81602      163.597 
-5.76167e-05      1.10164      164.197 
0.000138318      8.70333      152.787 
-7.50788e-05      10.6367      152.327 
0.000145001      2.41760      141.044 
-2.85634e-05      7.17231      146.487 
-5.58827e-05     0.220907     -174.806 
-1.97247e-05      4.01103      145.359 
0.000151544      1.91927      123.524 
-1.00668e-05      6.02588      150.798 
-0.000143523      10.4216      154.418 
-4.82174e-05      7.88822      145.746 
-3.84085e-05      8.62501      142.253 
0.000124983      1.59850      121.701 
0.000161437      5.06600      161.350 
0.000133801     0.272029     -72.8973 
-7.18101e-05      2.13242      156.801 
-5.65138e-05      4.06768      138.788 
-5.40316e-05      8.82981      148.146 
0.000132478      4.37799      144.858 
6.33234e-05      2.08019      123.232 
-3.70551e-05      9.87435      146.986 
-5.44621e-05      9.56805      150.166 
-8.84049e-05      11.0784      144.330 
-4.43622e-05      9.78622      148.454 
-5.29784e-05      4.39281      163.875 
-0.000114990      4.76391      160.120 
-1.90329e-05      10.9998      146.570 
-0.000105454      6.01824      150.539 
-4.52697e-05      9.87516      145.312 
5.36038e-05      3.94446      153.175 
0.000129542      7.79048      153.303 
-9.38898e-06      6.70242      151.676 
-1.85686e-05     0.164924      104.036 
-0.000103455      1.41450      133.854 
-2.63484e-05      8.64083      142.334 
-4.44307e-05      6.58401      154.447 
9.45759e-05     0.463897      7.43141 
-3.48897e-05      5.44037      149.759 
6.84507e-05     0.412311      157.166 
0.000110648      9.13947      144.710 
-9.16090e-06      4.00605      144.961 
-2.60771e-05      5.11132      148.113 
-8.52971e-05      8.64046      153.909 
-5.99003e-05      7.87170      145.664 
-1.80113e-05     0.200000      90.0000 
7.79920e-05      3.14350      165.256 
-5.14449e-05      5.11038      144.879 
-5.07698e-05      5.86941      151.950 
3.46270e-05      7.50658      150.293 
-1.74852e-05      10.0745      149.719 
-1.74191e-05      4.79354      147.437 
-8.93482e-06      4.83520      163.664 
-3.38909e-05      2.30495      164.396 
5.10550e-05      8.95975      147.303 
-3.41958e-05      4.83735      150.255 
-3.36674e-05      7.11126      152.714 
7.58768e-05      3.53638      148.647 
-1.75346e-05      4.88528      165.053 
8.38206e-05      8.76824      154.896 
-2.53036e-05      10.0918      149.776 
-3.36815e-05      1.08240      163.909 
-8.75968e-06      10.9888      146.657 
-4.18842e-05      5.74766      147.361 
-2.52475e-05      10.5856      149.705 
-8.69746e-06      9.23563      150.271 
-1.70500e-05      4.03946      138.814 
2.50822e-05      3.85212      148.373 
-4.97342e-05     0.220000      90.0000 
-5.79867e-05      4.54401      143.231 
-4.14188e-05      2.73890      170.331 
-8.59280e-06      9.91988      148.521 
4.94762e-05      3.89667      148.431 
-2.48877e-05      3.98969      144.796 
-8.56095e-06     0.379473     -18.4349 
-3.30993e-05      4.89951      165.340 
-2.47440e-05      4.18057      138.685 
-2.47001e-05      9.30376      152.333 
-8.50227e-06      7.46172      145.373 
-2.46899e-05      6.55735      154.529 
-8.49164e-06      1.21078      157.671 
5.75504e-05      2.96628      161.932 
-2.46013e-05      2.02514      145.054 
-1.65582e-05      11.2550      146.084 
-1.66343e-05      10.9831      146.512 
4.08445e-05      2.73649      173.706 
1.64889e-05      7.59589      150.330 
-8.37080e-06      8.84943      151.813 
-8.37386e-06      9.65273      149.769 
1.64375e-05      3.91760      153.304 
-2.44015e-05      1.22931      158.025 
-1.63120e-05      1.45602      142.815 
1.63647e-05      2.24589      129.218 
-2.43136e-05      2.49046      136.953 
-2.42756e-05      3.72779      145.713 
-1.61631e-05     0.240832     -175.236 
-8.15151e-06     0.412311     -14.0362 
-8.15679e-06      3.96162      168.350 
8.14030e-06      3.70000      126.870 
-1.61741e-05      3.80489      133.935 
-1.61075e-05      4.84487      150.578 
-8.10830e-06      8.82236      151.866 
-8.10915e-06      9.90299      145.283 
-1.59984e-05      10.6974      153.579 
1.59844e-05      3.13847      165.610 
7.95611e-06      9.46792      155.276 
-7.95515e-06      6.47386      156.127 
-7.95561e-06      6.90519      153.880 
-7.93422e-06      5.13887      148.042 
7.93203e-06      11.4012      149.071 
-7.92181e-06      9.77577      148.554 
