! Center RA: 04 23 15.80073,  Dec: -01 20 33.06555 (2000.0)
! Established model.
! Flux (Jy) Radius (mas)  Theta (deg)  Major FWHM (mas)  Axial ratio   Phi (deg) T \
! Freq (Hz)     SpecIndex
   2.35738      0.00000      0.00000 
 0.0368688    0.0447214     -26.5651 
 0.0338762    0.0721110      146.310 
 0.0740481    0.0721110     -33.6901 
 0.0920797     0.100000      143.130 
 0.0875142     0.100000     -36.8699 
  0.105382     0.113137      135.000 
 0.0361930    0.0848528     -45.0000 
 0.0485413     0.100000     -53.1301 
 0.0129057     0.100000      126.870 
 0.0384212     0.116619      120.964 
 0.0497242    0.0894427     -63.4349 
 0.0401200     0.107703      111.801 
 0.0311818    0.0824621     -75.9638 
 0.0255968     0.101980      101.310 
 0.0132911     0.101980     -78.6901 
0.00597646     0.667533     -171.384 
 0.0127903     0.746726      7.69605 
0.00116117     0.687314     -171.634 
0.00142446      1.12285      175.914 
0.00241406      1.10291      175.840 
0.00120421     0.611882     -168.690 
0.000496474     0.784092     -174.144 
0.00167819      3.30121     -170.937 
0.00125956     0.488262      145.008 
0.00546375      2.00250     -177.138 
0.00306762     0.803990     -174.289 
0.000658345      1.62874     -155.323 
-0.000759288     0.810432      15.7512 
0.00178989      1.08296      175.764 
0.00240455     0.822192     -175.815 
0.000507267     0.628013      170.838 
0.00306947      1.64694     -155.614 
0.00118190     0.956033      164.219 
0.00424878      1.01074      152.928 
0.00220938      1.48337     -176.135 
0.00198914      1.80189      171.060 
0.00171272     0.608276      170.538 
0.00183887      2.79435     -165.069 
0.00113569      2.32078      178.519 
0.00263395      3.32096     -170.991 
0.00186170      1.06301      175.684 
0.00368229     0.803990      5.71059 
0.00112181      1.46342     -176.082 
0.000485902      1.25634      166.185 
0.000532706      2.87005      175.203 
0.00154039     0.842140     -175.914 
-0.00505559     0.844038      13.7070 
0.00239192      4.84017      179.526 
0.00173234     0.128062      128.660 
0.00143280      4.08049     -170.122 
0.00110307      2.58194      177.780 
-0.00279506     0.252982      108.435 
0.000790054      2.95919     -166.715 
0.00197136      1.37317     -167.381 
0.00233215      1.82165      171.158 
-0.000285418      4.74826     -176.619 
0.000998911      2.85012      175.170 
0.000955229      1.66517     -155.898 
0.00117043      3.34072     -171.045 
-0.000348160      4.76823     -176.634 
0.000587789      4.02080     -156.240 
0.00166193      1.04307      175.601 
-0.00627086      1.18017     0.971022 
0.00222709     0.743236      156.194 
0.00290201     0.141421      135.000 
0.00168523      2.25158     -161.887 
8.25057e-05      3.85565     -168.632 
-0.00305153      5.04103     -174.764 
0.00126532      5.29218     -166.226 
0.000597439      2.77626     -173.797 
0.000299826      1.78180      177.427 
0.000867358     0.766551      7.49586 
0.000502271      3.61796     -174.289 
0.00151625      2.02247     -177.166 
0.000594972      1.62604     -175.061 
-0.00101860     0.540370      2.12110 
-0.00177779      1.24000      180.000 
0.000548715      4.00250     -156.125 
0.00328943      1.02176     -3.36646 
0.000816703      2.92910     -162.926 
0.00330683     0.651153      10.6197 
0.000336825      2.77503     -164.962 
0.000506539      4.70663     -173.902 
-0.00289927     0.234094      109.983 
-0.00235766     0.580000      180.000 
0.000435080      2.47427     -159.661 
0.000262216     0.538516      148.671 
-0.00788151     0.560357      2.04541 
0.000435391      1.76182      177.397 
0.000804227     0.588558      170.218 
0.000521550     0.823893     -174.428 
0.000132167      3.47079     -152.549 
-0.00126049      2.92335      177.255 
0.000197008      2.50320     -172.194 
-0.00490284     0.161245     -97.1250 
0.000786701     0.572713     -167.905 
0.00129482      2.83019      175.135 
0.000788574      2.75637     -173.752 
-0.000754040      2.50966     -174.971 
0.000509773      5.06885     -163.496 
0.000327600      3.45306     -152.396 
0.000999884      2.48338     -172.131 
0.000282775     0.156205      140.194 
0.000394229      3.26980     -161.454 
0.000221671      3.63786     -174.321 
0.000416683      2.26451     -162.525 
0.000813635      1.29074      167.471 
-0.00250949      1.22000      180.000 
-0.00190667      1.97231     -173.596 
0.000276776      3.98422     -156.008 
0.000617115      4.82017      179.525 
0.000112324      3.87525     -168.690 
-0.000604282      2.99252     -171.545 
-0.000640340      3.83343     -162.699 
0.000370539      1.02859      153.435 
0.000271953     0.305941      168.690 
0.00149105      1.04173     -3.30187 
0.000646521     0.553173     -167.471 
0.000296123     0.521536      147.529 
-0.00312420     0.600000      180.000 
-0.000406685      2.52008     -179.545 
0.000956924      2.04245     -177.194 
0.000765336      5.27276     -166.175 
0.000197954      2.45552     -159.499 
0.000438400      4.70880     -173.660 
0.000377269      4.52840     -161.725 
-0.00133558      4.42195     -174.289 
0.000288938      3.91065     -169.092 
-0.000786323      1.76045     -178.698 
0.000603854     0.568859      169.875 
0.00106884      1.64596     -175.121 
-0.000502359      4.40654     -176.878 
0.00132267      2.28359     -162.676 
0.000278733      3.25085     -161.342 
0.000418229      5.04967     -163.431 
9.77057e-05      3.96595     -155.891 
0.000191765     0.329848      165.964 
-0.00156227     0.824621      14.0362 
-4.91020e-05      3.24475     -172.919 
0.000268905      4.14135     -153.930 
-0.000719211      3.22490     -172.875 
0.000469861      2.73649     -173.706 
8.90590e-05     0.349285      166.759 
0.00111765      1.74184      177.368 
-0.00270861      1.78011     -179.356 
-0.000615848      2.48032     -179.076 
-0.000602592     0.523450      133.452 
0.000293422      3.61204     -149.744 
0.000769367      4.76004      179.759 
-4.53589e-05      2.50008     -179.542 
0.00112131      4.24019      179.459 
4.48280e-05      3.94771     -155.772 
0.000783160      4.68892     -173.633 
8.10423e-05     0.368782      167.471 
0.000515553     0.549181      169.509 
0.000806901      4.74270     -178.067 
0.000382478      4.00525     -169.644 
0.00214168     0.631506      10.9541 
0.000470206      4.55368     -161.565 
0.000385655     0.608276     -170.538 
-0.00128376      4.38657     -176.864 
4.13152e-05      4.49021     -158.578 
0.000148955      2.90998     -162.810 
0.000625317      4.15933     -154.051 
-0.00160117      4.33820     -154.026 
0.000150013      3.23190     -161.229 
4.00746e-05      3.92948     -155.653 
0.000300474      2.26080      178.479 
0.000438101      2.50056     -172.648 
0.000451395      2.52040     -172.706 
0.000141573     0.504777      146.310 
0.000829620      5.25334     -166.122 
0.000869404      3.63670     -150.333 
3.70530e-05     0.388330      168.111 
0.000994344      1.66589     -175.179 
3.61679e-05      3.43535     -152.241 
0.000135516      2.82800     -165.669 
0.000684756      1.72186      177.337 
0.000253689      2.81027      175.101 
0.00200578    0.0800000     -90.0000 
0.000256279      3.61934     -150.177 
-0.00106947     0.160000     -90.0000 
0.000132454     0.407922      168.690 
0.000372050      4.74004      179.758 
0.000657281     0.704557     -6.51980 
9.54513e-05      5.03051     -163.366 
0.000281952      2.24080      178.466 
6.28127e-05      3.42707     -151.790 
9.73657e-05     0.628013     -170.838 
3.28137e-05      3.89307     -155.410 
-0.000965320      2.46033     -179.068 
-0.000754749      4.44185     -174.315 
0.000152462      3.21297     -161.114 
-0.00322192      1.80011     -179.363 
3.24786e-05      1.31027      167.661 
-0.000574648      3.14814     -172.333 
0.000932740      4.17732     -154.171 
-0.000174445      3.20506     -172.831 
-0.000942955      3.82523     -150.218 
-5.98540e-05      2.48974     -174.931 
8.32845e-05      2.41810     -159.167 
-0.00129825      1.35484     -171.511 
3.04384e-05     0.647765     -171.119 
0.000171391      4.57266     -161.644 
0.000165403      2.71662     -173.660 
8.70111e-05      2.80863     -165.568 
0.000745881      1.39270     -167.560 
0.000253991      1.70188      177.306 
-2.91577e-05      3.83943     -162.415 
-0.000846501     0.805233      14.3814 
8.44890e-05     0.427551      169.216 
-0.00107910      1.95243     -173.530 
-0.000647304      1.20000      180.000 
5.57717e-05      1.81868      171.781 
0.000132909      2.22081      178.452 
0.000477853      4.66905     -173.606 
0.000129336      4.76269     -178.075 
2.74629e-05     0.707107     -171.870 
7.91156e-05      3.19406     -160.998 
0.000243121      2.37428      173.713 
0.000899779     0.726911     -172.093 
0.000153672      4.22019      179.457 
0.000416263      5.30754     -174.161 
-0.00133563     0.161245     -82.8750 
-0.00104634     0.215407      111.801 
0.000617290      1.66108      177.930 
0.000256475      2.79034      175.066 
0.000125624     0.992975      152.403 
-2.65724e-05      4.46878     -167.332 
0.000220541      4.46161     -163.596 
0.000529111      5.14249     -178.217 
-0.000674988     0.509902      131.820 
0.000496292     0.472017      143.616 
0.000146330      4.72004      179.757 
-0.000147270      3.12832     -172.284 
0.000152770     0.447214      169.695 
0.000283529      3.29169     -154.058 
-0.000380999      4.48830     -167.388 
5.13073e-05      4.59164     -161.723 
-0.000622073      1.95346     -169.380 
-4.95704e-05      3.82037     -162.324 
0.000295660      2.00360     -176.566 
4.87185e-05      3.98557     -169.592 
2.54618e-05     0.809938      159.775 
-4.99436e-05      3.29879     -169.167 
2.52552e-05      1.56461     -175.601 
0.000875154      1.58455     -175.657 
2.48963e-05      2.78927     -165.466 
-0.000282425      2.93973      173.358 
4.84324e-05      4.61064     -161.801 
4.80243e-05      2.93503     -162.553 
-0.000488088      3.31843     -169.232 
0.000906494      1.98363     -176.532 
2.42810e-05      2.20082      178.438 
0.000908349      4.19533     -154.290 
0.000190768      4.07539     -159.609 
0.000547927      3.28146     -170.882 
0.000317796      5.43253     -168.318 
2.35706e-05      5.28923     -172.176 
6.78315e-05      4.20019      179.454 
4.51741e-05     0.791202      159.274 
2.29843e-05      4.62964     -161.878 
6.71084e-05     0.975295      151.858 
0.000492734     0.726911      7.90716 
6.56527e-05      3.12525     -160.174 
0.000144526      4.86428     -162.534 
0.000181289      4.48080     -163.668 
6.53575e-05     0.724431     -6.34019 
0.000211480      2.54024     -172.763 
0.000477776      1.64110      177.905 
2.24415e-05      2.23258     -161.727 
2.22971e-05      3.78428     -154.654 
-2.20695e-05      2.85110     -171.529 
-0.000357371      3.80789     -150.068 
-0.000519769     0.785875      14.7436 
6.30918e-05      2.18083      178.423 
0.000102181      4.18019      179.452 
-2.13363e-05      2.83132     -171.469 
5.96746e-05      4.64866     -161.955 
0.000100415      2.69674     -173.613 
0.000157366      2.60123      178.238 
6.18571e-05      4.70004      179.756 
6.20930e-05      3.33880     -158.199 
2.11112e-05      1.74642     -150.499 
4.06494e-05     0.957706      151.294 
4.14396e-05     0.744312     -6.17017 
0.000161162     0.740270      141.582 
0.000324917      1.72905     -150.173 
-6.04378e-05      2.81155     -171.409 
2.02271e-05     0.746726     -172.304 
0.000207759      1.41223     -167.735 
-0.000131788      4.90408     -166.077 
0.000338811      3.26172     -170.826 
3.98926e-05     0.764199     -6.00901 
-9.38807e-05      2.46982     -174.890 
5.81240e-05      3.79526     -174.860 
-0.000111601      3.18522     -172.786 
0.000167443      4.12311     -177.776 
9.44733e-05      3.35738     -158.325 
3.84854e-05      3.96590     -169.540 
7.64399e-05      2.16083      178.409 
0.000204660      2.56008     -172.819 
0.000184355      1.60449     -175.711 
-0.000203571     0.164924     -75.9638 
-7.63116e-05      2.79177     -171.347 
0.000110108      4.66768     -162.031 
0.000168236    0.0824621     -104.036 
3.74290e-05      4.16019      179.449 
0.000219974     0.724707      140.599 
-0.000239311      4.04401     -154.829 
-9.18333e-05      4.50782     -167.444 
0.000200666      1.62111      177.879 
7.29815e-05      4.15736     -159.734 
0.000234126     0.707107      8.13010 
9.08762e-05      5.41295     -168.275 
1.86894e-05      3.74817     -154.392 
1.87604e-05     0.843801     -5.44033 
5.43911e-05      3.81518     -174.887 
9.05846e-05      3.65409     -150.489 
1.85446e-05      4.68004      179.755 
1.85144e-05     0.863713     -5.31455 
7.18394e-05      4.78268     -178.083 
-8.97985e-05      2.77200     -171.285 
7.18258e-05      2.67686     -173.565 
3.60592e-05     0.883629     -5.19443 
-5.38006e-05      4.60513     -160.463 
3.56369e-05      2.14084      178.394 
3.56791e-05      4.50000     -163.740 
3.58925e-05      3.76622     -154.524 
7.10766e-05     0.456070      142.125 
5.34433e-05    0.0894427     -116.565 
1.79572e-05      2.38076     -158.824 
1.79582e-05      1.27122      167.276 
-0.000106527     0.496790      130.101 
5.31504e-05      1.96367     -176.496 
1.77952e-05     0.100000     -126.870 
1.78006e-05      1.02313      175.515 
1.76242e-05      2.77042      175.030 
1.76070e-05     0.903549     -5.07961 
1.75563e-05      3.24197     -170.770 
-3.51190e-05     0.766551      15.1240 
0.000355370     0.984886      150.832 
0.000642661      4.32167      178.409 
0.000331658     0.967471      150.255 
3.94882e-05      5.36526     -166.637 
0.000126089      5.38472     -166.686 
0.000293202     0.950158      149.657 
3.51497e-05      5.36067     -166.845 
1.63885e-05      5.57136     -164.168 
0.000281232      1.56486     -141.226 
3.21057e-05      5.35171     -167.262 
1.56673e-05      5.57685     -163.970 
1.54961e-05      5.34734     -167.471 
3.03081e-05      5.34303     -167.681 
1.48154e-05      5.58240     -163.773 
2.90946e-05      5.33880     -167.890 
1.42281e-05      5.33464     -168.100 
1.40779e-05      5.59371     -163.379 
2.77320e-05      5.33055     -168.311 
1.39162e-05      3.09386     -157.580 
1.37389e-05      3.08629     -157.923 
2.70960e-05      5.32654     -168.521 
5.33742e-05      3.11236     -157.720 
1.34797e-05      5.59946     -163.183 
5.22567e-05      5.32259     -168.732 
5.09729e-05      3.13847     -157.521 
3.80578e-05     0.932952      149.036 
1.27381e-05      5.60528     -162.987 
2.52323e-05      5.31872     -168.944 
1.23756e-05      3.15696     -157.659 
1.24257e-05      5.31492     -169.155 
