! Center RA: 12 29 06.69973,  Dec: +02 03 08.59828 (2000.0)
! Tentative model.
! Flux (Jy) Radius (mas)  Theta (deg)  Major FWHM (mas)  Axial ratio   Phi (deg) T \
! Freq (Hz)     SpecIndex
 0.0334639    0.0282843     -135.000 
0.00669241     0.200000     -143.130 
 0.0277365     0.228035     -142.125 
0.00407655      0.00000      0.00000 
 0.0134057    0.0200000      180.000 
-0.00308993     0.898888     -147.724 
-0.00670122     0.871321     -148.134 
-0.0124028      1.20416     -147.894 
0.00977625     0.240832     -138.366 
-0.000250988     0.816333     -149.036 
-0.000484074     0.788923     -149.534 
-0.00259825     0.778974     -150.803 
-0.00187485      1.55872     -123.486 
-0.00124012     0.926499     -147.339 
-0.000406152      1.56474     -125.112 
-0.00112627     0.769675     -155.433 
-0.000190131      1.59625     -127.875 
-0.000182974      1.60860     -128.437 
-0.00247736     0.954149     -146.976 
-0.000345471      1.62111     -128.991 
-0.00112372     0.676757     -161.030 
-0.000498503      1.54777     -122.869 
0.00111685    0.0282843      135.000 
-0.000999036      1.45836     -132.221 
-0.000469242      1.63377     -129.536 
-0.000153921      1.53701     -122.242 
-0.00187292     0.761577     -150.068 
-0.000148226      1.46000     -131.112 
-0.000147592      1.56461     -122.471 
0.00155707    0.0447214      153.435 
-0.000284146      1.45437     -121.504 
-0.00182136     0.657875     -160.463 
-0.000281091      1.64657     -130.073 
-0.000658594      1.87627     -125.893 
-0.000734425      1.42688     -121.239 
-0.000255016      1.59223     -122.692 
-0.000375611      1.65952     -130.601 
-0.000251902      1.90421     -126.027 
-0.000461687      1.91604     -126.511 
0.00211008    0.0721110      146.310 
-0.000328081      1.67260     -131.121 
-0.00110998      1.41662     -120.548 
-0.000111736      1.44499     -131.634 
-0.000110878      1.63083     -123.495 
-0.000677430     0.937443     -146.310 
-0.00205568      1.22115     -148.392 
-0.000267759      1.80887     -125.096 
-0.00177833     0.744312     -149.300 
-0.000671403      1.95602     -127.104 
-0.000290048      1.44361     -132.754 
-0.000705295      1.78101     -124.939 
-0.000100984      1.67475     -130.156 
-0.000786920     0.639062     -159.864 
-0.000989123      1.68772     -130.675 
-0.000499362      8.66002     -143.262 
-0.000756593      8.64400     -143.183 
-0.000901570     0.484149     -128.290 
-8.39429e-05      1.41534     -132.709 
-0.000456537      1.99620     -127.674 
-8.32401e-05      1.58152     -122.082 
-0.000238266      8.64808     -143.369 
-7.98289e-05      1.38708     -132.663 
-0.000927380      2.94401     -143.286 
-0.00258863     0.340000      28.0725 
-7.69867e-05      1.35882     -132.614 
-0.000531809      2.17200     -143.236 
-0.000150118      8.75445     -145.330 
-0.000146266      1.60910     -122.307 
-7.41964e-05      1.34536     -131.987 
-0.000786141      1.40656     -119.846 
-0.000411225      1.24868     -148.092 
-0.00109203     0.472017     -126.384 
-0.000267387      2.46008     -143.596 
-0.00108953      9.59221     -128.567 
0.000908788    0.0894427      153.435 
-0.000200988      8.72663     -145.363 
-7.14980e-05      1.33207     -131.348 
-0.000310586      2.91602     -143.366 
-0.000250654      1.43388     -120.141 
-0.00108508      8.73801     -145.255 
-6.94229e-05      1.30384     -131.269 
-0.00112209      8.39631     -143.621 
-0.000351065     0.620323     -159.228 
-6.77928e-05      2.48805     -143.499 
-0.000372738      1.29074     -130.601 
-6.66771e-05      8.39212     -143.431 
-0.000357977      2.02425     -127.776 
-0.000186211      1.76963     -124.408 
-0.000297538      1.01548     -122.125 
-6.38702e-05      2.64401     -143.303 
0.000291707    0.0824621      165.964 
-0.000308199      2.50416     -143.771 
-0.000120299      2.68805     -143.471 
0.000221375    0.0894427     -26.5651 
-0.000174285      8.67200     -143.157 
-0.000113434      1.55048     -149.797 
-0.000703286      2.51873     -122.681 
-0.000456590      2.73211     -143.633 
-0.000498986      2.53645     -127.954 
-0.000325104     0.310483      104.931 
0.000457995     0.226274     -135.000 
-0.000160349      1.27781     -129.920 
-0.000311630     0.778203     -154.093 
-5.51470e-05      2.80414     -143.702 
-5.46832e-05      3.08804     -143.427 
-0.000137287      8.65600     -143.077 
-0.000271822      9.57975     -128.473 
-0.000106612      7.84092     -142.253 
-0.000101297      1.87723     -141.054 
-0.000253459      9.41448     -128.185 
-0.000248659      1.00499     -121.159 
0.000105105     0.101980      168.690 
-0.000201962      2.53559     -122.437 
-0.000398695      2.12800     -143.022 
-0.000550278     0.580000     -90.0000 
-0.000338624      3.11602     -143.351 
-5.24024e-05      1.75841     -123.871 
-0.000197646      8.68401     -143.051 
0.000814908     0.100000      126.870 
-0.000511528      2.76007     -143.545 
-0.000100046      2.01206     -127.326 
0.000402448      6.23108     -144.933 
-0.000190393      8.25884     -129.202 
-9.37520e-05      1.70294     -130.236 
-0.000189653      7.85318     -142.138 
-0.00105934     0.325576      100.620 
0.000374528     0.120000      180.000 
-0.000174302      1.56780     -150.164 
-0.000168014      1.26507     -129.226 
-0.000528426     0.970979     -147.619 
-4.79143e-05      8.69605     -142.946 
-0.000215283     0.601664     -158.552 
-0.000136747      2.62458     -122.237 
-9.28599e-05      2.04010     -127.432 
0.000546850      6.33621     -143.600 
-0.000220248      8.24575     -130.179 
-0.000260948      8.73613     -142.815 
-0.000220169      9.41116     -128.356 
0.000298299      5.39752     -141.771 
4.57159e-05     0.116619     -30.9638 
-0.000521147      8.55815     -139.834 
-0.000173008      1.03247     -121.535 
-0.000198538     0.765506     -109.855 
0.000126550      5.38182     -141.639 
-0.000129270      8.59044     -132.830 
-4.43876e-05      1.77505     -123.511 
-0.000274325      2.54880     -128.309 
-8.52914e-05      2.92800     -143.052 
-0.000351516      1.23822     -148.878 
-0.000201372      2.02800     -126.983 
-0.000231863      2.52032     -144.039 
0.000392417     0.140000      180.000 
-0.000324525      7.83740     -142.048 
-0.000308327      2.64151     -122.005 
-0.000159396      3.12800     -143.057 
-0.000174280      1.25252     -128.517 
4.17398e-05     0.134164     -26.5651 
-0.000153759      8.72406     -142.920 
-0.000191785      9.48027     -129.264 
-0.000118467      8.24342     -130.375 
-0.000226142      8.58941     -133.019 
0.000605924      1.29074     -167.471 
-7.80220e-05      1.24016     -127.794 
-0.000151095      2.95601     -142.975 
-7.60142e-05      8.27435     -129.114 
-0.000494085      1.02215     -120.579 
-0.000222559      9.18984     -128.017 
7.77247e-05     0.161245     -172.875 
-0.000208517      1.21655     -117.408 
-0.000559569     0.402492      153.435 
-0.000258986      2.71603     -143.383 
0.000295304     0.126491     -18.4349 
-0.000109647      9.71288     -129.821 
-0.000144201      8.23048     -130.269 
-7.28283e-05      1.79778     -122.276 
0.000106071      6.24260     -144.782 
-6.96484e-05      9.39877     -128.260 
-0.000483389     0.721110      19.4400 
0.000259307     0.181108     -173.660 
-3.65449e-05      8.72158     -145.180 
-0.000128286      1.89283     -141.435 
-0.000105306      8.41190     -144.874 
-7.15273e-05      3.33665     -140.106 
-7.04168e-05      3.15601     -142.985 
-0.000346705      7.81601     -130.538 
-6.87757e-05      3.18911     -141.621 
-6.81058e-05      1.58518     -150.524 
-6.53294e-05      1.66193     -129.629 
-0.000314393      8.54288     -139.748 
-0.000312976      3.36482     -140.064 
-0.000161316      8.58848     -133.207 
-0.000245882      2.54566     -128.941 
-6.79987e-05      9.19332     -127.842 
-6.62512e-05      1.81472     -121.938 
-0.000277905      2.66908     -122.142 
0.000186526     0.116619      120.964 
-0.000128841      1.26570     -148.570 
-9.64910e-05      9.74105     -129.836 
-3.36894e-05      8.57480     -133.110 
0.000128497      5.93976     -135.273 
-0.000153722      2.53653     -144.305 
-6.55448e-05      3.00000     -143.130 
-0.000215916     0.987927     -148.241 
-0.000121519      9.49294     -129.357 
-0.000388690     0.412311      157.166 
-3.32518e-05      2.01604     -126.529 
-6.17411e-05      8.26174     -129.006 
-0.000183762      8.21523     -130.359 
-3.26621e-05      3.19249     -142.125 
-0.000154046      8.40040     -144.986 
-0.000241959      9.17754     -127.919 
0.000183301      6.25415     -144.633 
-9.20292e-05      1.59962     -137.534 
-0.000119984     0.417612      73.3008 
-0.000150733     0.460435     -124.380 
-0.000180845      3.20481     -141.843 
-0.000178771      8.83167     -124.482 
-0.000150033      8.63203     -143.289 
-0.000120160      1.57544     -151.157 
0.000266983     0.652993      139.970 
-3.13276e-05      1.84228     -122.137 
-0.000205387      4.72479     -139.635 
-6.08521e-05     0.787147     -152.784 
-6.05657e-05      9.38639     -128.164 
-3.09283e-05      3.02800     -143.054 
-6.03572e-05      1.83172     -121.608 
-8.76504e-05      2.50192     -122.928 
-8.88931e-05      8.57391     -133.299 
5.90219e-05      6.16831     -136.577 
5.81790e-05      5.95386     -135.136 
-5.81038e-05      3.07200     -143.205 
-2.95377e-05      1.36953     -118.811 
-5.75840e-05      7.80933     -142.074 
-2.93083e-05      1.97626     -125.942 
-5.81092e-05      1.25539     -149.349 
5.72718e-05      5.25711     -141.953 
2.92172e-05      6.34810     -143.455 
-2.91780e-05     0.758947     -108.435 
-2.89831e-05     0.500000     -143.130 
-2.85252e-05     0.960417     -148.627 
-2.85227e-05      1.20748     -116.565 
-5.63564e-05      8.58764     -133.396 
5.63825e-05     0.145602     -15.9454 
-2.83126e-05      1.82132     -121.072 
2.81711e-05      6.18285     -136.704 
-2.81245e-05      8.75207     -142.894 
-5.57063e-05      5.12016     -134.050 
-2.80998e-05      8.38403     -144.907 
-2.79589e-05     0.322490      29.7449 
2.78298e-05      6.26575     -144.484 
-2.77733e-05      3.22056     -142.063 
-2.77799e-05      1.83848     -120.750 
2.76573e-05      9.55475     -137.460 
-2.76371e-05      8.60405     -143.317 
