! Center RA: 08 30 52.08619,  Dec: +24 10 59.82027 (2000.0)
! Established model.
! Flux (Jy) Radius (mas)  Theta (deg)  Major FWHM (mas)  Axial ratio   Phi (deg) T \
! Freq (Hz)     SpecIndex
 0.0608896    0.0447214     -26.5651 
 0.0258629    0.0282843     -45.0000 
 0.0217102    0.0200000      0.00000 
 0.0885929     0.297321      132.274 
 0.0290108      0.00000      0.00000 
0.00652567     0.282843      135.000 
 0.0125255     0.269072      131.987 
0.00799922    0.0721110     -33.6901 
0.00761050    0.0447214      153.435 
0.00728472     0.100000     -36.8699 
 0.0278876    0.0721110      146.310 
 0.0187101     0.116619     -30.9638 
0.00718809     0.100000      143.130 
 0.0187355     0.128062     -38.6598 
0.00179733     0.325576      132.510 
 0.0170410     0.228035      127.875 
0.00512035     0.353836      132.709 
 0.0207517     0.382099      132.879 
 0.0197616    0.0894427      153.435 
 0.0294691     0.144222     -33.6901 
 0.0153029     0.200000      126.870 
 0.0180051     0.396989      130.914 
 0.0259569    0.0632456      161.565 
 0.0118491     0.410366      133.025 
 0.0144424     0.212603      131.186 
0.00462353     0.156205     -39.8056 
 0.0230109     0.172047     -35.5377 
0.00202408     0.216333      123.690 
0.00908499     0.425206      131.186 
0.000430551     0.215407      111.801 
0.00200126     0.226274      135.000 
0.00218813     0.228035      105.255 
0.000778183     0.412311      129.094 
0.00104594     0.300000      143.130 
0.000338510     0.240832      138.366 
0.000936014     0.316228      145.305 
0.00121048     0.223607      100.305 
0.000306856     0.438634      136.848 
0.000293297     0.360555      146.310 
0.00106836     0.197990      135.000 
0.000817557     0.453431      138.576 
0.00151714     0.377359      147.995 
0.00303863     0.243310      99.4623 
0.00113561     0.472017      143.616 
0.00104726     0.184391      130.601 
0.000214474     0.332866      147.265 
0.000591896     0.394462      149.534 
0.00139349     0.488262      145.008 
0.00108040    0.0400000      180.000 
0.000191459     0.156205      129.806 
0.000705119     0.240832      94.7636 
0.000978622     0.349857      149.036 
0.000178489     0.400000      126.870 
0.000509472     0.144222      123.690 
0.00255557     0.263059      98.7462 
0.00116335    0.0600000      180.000 
0.000169097     0.388330      124.509 
0.00113172     0.428019      127.405 
0.000456359     0.134164      116.565 
0.00118970     0.504777      146.310 
0.000142630     0.107703      111.801 
0.00172979     0.367151      150.642 
0.000400155     0.126491      108.435 
0.000366725     0.101980      101.310 
0.000238328    0.0447214     -153.435 
0.000115793     0.121655      99.4623 
0.000519369     0.416173      125.218 
0.00124423     0.516140      144.462 
0.000536491     0.100000      90.0000 
0.00134237    0.0632456     -161.565 
9.90729e-05     0.120000      90.0000 
0.000460838     0.101980      78.6901 
0.00171477     0.260768      94.3987 
0.000408569     0.521536      147.529 
0.000724145     0.404969      122.905 
0.000701494     0.107703      68.1986 
0.000652241     0.322490      150.255 
0.000365566     0.384708      152.103 
0.00152478     0.532541      145.713 
0.000886547     0.116619      59.0362 
6.83348e-05     0.349285      113.629 
0.000517763    0.0824621     -165.964 
0.000414644     0.394462      120.466 
0.000240824     0.128062      38.6598 
0.000979878     0.188680     -32.0054 
0.000256114     0.402492      153.435 
0.000211271     0.340000      151.928 
0.000171456     0.141421      98.1301 
0.000283904     0.144222      33.6901 
0.000239033     0.282843      98.1301 
0.000347105     0.260000      90.0000 
0.000573047      3.59489      137.255 
3.83187e-05     0.341760      110.556 
3.77696e-05     0.145602      105.945 
0.000231609    0.0894427     -153.435 
3.66134e-05      2.55265      119.578 
0.000319109     0.152315      66.8014 
0.000648402    0.0565685     -135.000 
0.000256883     0.145602      74.0546 
0.000288519    0.0447214     -116.565 
4.18174e-05     0.164924      75.9638 
7.98246e-05     0.203961      78.6901 
0.000883425     0.468615      129.806 
7.13208e-05     0.220907      84.8056 
0.000969626     0.134164      63.4349 
0.000149170     0.240832      85.2364 
0.000747371     0.769415      117.897 
0.000587808      2.31603      126.573 
0.000422761      2.32155      112.810 
2.67999e-05      2.00360      116.053 
0.000613995      1.99489      115.537 
0.000552913     0.536656      153.435 
0.000329237     0.205913     -29.0546 
0.000552248      4.11655      133.622 
0.000542344      1.58417      133.977 
7.94401e-05     0.575847      110.323 
0.000312143     0.583095      112.166 
3.70157e-05      2.20045      115.866 
0.000507582      2.49704      144.782 
0.000485933      2.74554      128.790 
0.000236460      2.05066      135.395 
0.000395095      4.25516      124.661 
8.26129e-05      2.32594      117.667 
0.000131673      1.58114      124.695 
0.000271997     0.280713      94.0856 
0.000330840    0.0721110     -146.310 
4.91748e-05      2.19180      115.396 
0.000102755      2.31387      112.353 
0.000292067      3.91203      127.104 
0.000190361      3.79684      131.583 
0.000289750      4.51633      137.692 
2.89231e-05      2.14672      111.306 
0.000261292      1.56984      124.095 
0.000204104     0.930591      151.783 
0.000136237      2.13953      110.807 
0.000123327      1.04307      122.471 
2.60046e-05      2.33529      118.101 
0.000156173      2.49576      111.631 
0.000172777      2.32034      125.882 
3.82399e-05      1.56984      134.484 
0.000177808     0.223607     -26.5651 
-0.000169414     0.325576     -42.5104 
4.88411e-05      2.06495      135.785 
-0.000384929     0.311127     -45.0000 
0.000170891      3.62800      126.933 
4.42410e-05     0.975295      164.539 
2.35958e-05      2.30634      111.894 
6.66970e-05      2.49070      124.200 
7.85178e-05     0.778974      119.197 
0.000146174      1.04957      120.964 
1.18653e-05      1.58392      135.000 
-0.000150000      4.21753      129.806 
-0.00104789     0.339411      135.000 
-0.000319774     0.681175      139.764 
6.56862e-05      3.25730      144.749 
0.000365893      1.34848      144.660 
0.000175052      4.13323      120.536 
3.27418e-05      2.28035      111.615 
-0.000406857     0.286356      167.905 
-0.000308987      1.23110      136.975 
2.77652e-05      4.08000      118.072 
0.000108406      4.55245      126.064 
0.000147018     0.438634      155.772 
0.000111328      2.58990      120.129 
5.96021e-05      3.38922      146.310 
0.000151850      2.03666      135.796 
7.59119e-05      2.64764      137.755 
9.72066e-05      3.32938      125.218 
0.000194440      2.72837      117.504 
7.43599e-05      2.27306      111.146 
0.000218596      1.44402      126.552 
0.000259947     0.481664      131.634 
8.74242e-05      3.24099      144.545 
5.85169e-05     0.393954      156.038 
0.000179285     0.233238     -30.9638 
3.56145e-05      1.04862      124.902 
6.36955e-05      2.50200      124.579 
0.000219234     0.913017      151.189 
9.60453e-06      3.81182      131.384 
-0.000199031      4.20476      129.596 
0.000616567     0.375766      154.799 
0.000206333      3.58022      137.037 
3.60862e-05      3.79863      131.158 
-0.000106326      1.68689      100.244 
-0.000300788     0.769675      155.433 
6.77793e-05     0.305941      101.310 
0.000164449      3.92413      127.337 
0.000104825     0.545894      151.557 
0.000128771      3.40035      146.030 
-4.06149e-05     0.313050      26.5651 
7.90067e-05      4.52451      126.009 
2.47577e-05      3.81371      130.960 
-8.02674e-05     0.694262      138.504 
5.27683e-05      2.15824      110.618 
0.000128451      3.11140      135.521 
1.59829e-05     0.868332      104.676 
4.26460e-05     0.956033      164.219 
-0.000184365     0.322490      29.7449 
1.58121e-05      4.13105      133.431 
-0.000162030      3.54277      138.662 
5.81480e-05      2.39006      135.339 
1.60766e-05      4.63206      126.573 
-8.53612e-05      2.95574      135.274 
-0.000307687     0.266833      167.005 
2.96467e-05      2.66248      138.045 
3.77889e-05      1.98635      115.017 
8.27557e-05      3.81581      130.536 
2.80990e-05     0.788923      120.466 
-0.000124133      4.22204      138.457 
3.46796e-05      2.26592      110.674 
6.84281e-05      1.04403      126.431 
4.14680e-05      4.66004      126.624 
-0.000101485      3.19331      130.173 
4.18029e-05      1.55332      124.509 
-0.000162450     0.679412      137.386 
0.000142999     0.310483      104.931 
8.38956e-05     0.495177      133.363 
5.40311e-05      3.22472      144.338 
-2.90566e-05      4.20409      126.488 
2.73889e-05      1.06000      121.891 
6.67463e-05      4.22734      124.592 
2.08097e-05     0.873613      105.945 
5.93013e-05      3.06307      130.764 
5.29298e-05      4.39945      130.206 
1.43047e-05     0.555698      149.744 
-4.65436e-05      3.18522      125.287 
5.98424e-05      1.97687      115.787 
4.11560e-05     0.538516      148.671 
-9.13161e-05      4.23207      126.545 
-8.44188e-05      1.20283      137.021 
2.58340e-05      4.62554      136.226 
5.18140e-05      2.29260      137.121 
1.96771e-05      2.15128      110.120 
-5.09702e-05      3.97417      134.388 
3.19855e-05      3.42286      124.526 
2.52563e-05      2.30868      125.480 
1.89389e-05      3.61602      126.680 
3.84594e-05     0.549181      146.889 
-2.51498e-05      3.75542      123.267 
1.25297e-05     0.879318      107.199 
6.33800e-06      2.67739      138.331 
3.69730e-05     0.509902      138.180 
-2.46285e-05      2.52071      128.234 
1.24907e-05     0.216333     -33.6901 
6.27082e-06     0.921303      152.879 
6.25799e-06      2.02237      135.401 
6.26269e-06     0.590931      113.962 
1.22712e-05      1.63670      141.450 
6.19464e-06      2.20925      116.333 
6.06189e-06      1.96825      115.263 
6.07100e-06      3.47753      139.899 
-6.00466e-06      1.66721      100.366 
5.92322e-05      2.18403      127.185 
1.42398e-05      1.53388      129.710 
1.40810e-05     0.835225      106.699 
1.40369e-05      2.24009      127.381 
6.65257e-05      1.51855      130.192 
2.73036e-05     0.829699      105.376 
1.37270e-05      2.26813      127.476 
1.34271e-05      2.29617      127.569 
3.88540e-05     0.824621      104.036 
1.31333e-05      2.32422      127.659 
1.28484e-05      2.33649      128.047 
1.25707e-05      2.34887      128.431 
4.83961e-05      1.54674      130.280 
0.000113590     0.820000      102.680 
1.22944e-05      2.38663      129.560 
1.20260e-05      2.41230      130.292 
0.000172328      4.65996      124.509 
1.17440e-05      2.42528      130.653 
1.14733e-05      1.79287      128.660 
1.13803e-05      2.46479      131.711 
2.22887e-05      1.57493      130.365 
1.11141e-05      2.47814      132.056 
1.08285e-05      2.18806      126.451 
1.07197e-05      1.43010      132.166 
1.06850e-05      2.50511      132.735 
1.04919e-05      1.70552      129.289 
1.04806e-05     0.800500      102.995 
1.03851e-05      2.49046      133.047 
1.03335e-05      1.41534      132.709 
1.02656e-05     0.746726      97.6961 
2.00077e-05      1.89621      127.716 
1.00933e-05      2.51873      133.069 
9.99935e-06      1.40071      133.264 
8.24119e-05     0.744312      96.1702 
1.93069e-05      2.51794      133.713 
9.72746e-06      1.35794      133.807 
9.53269e-06      1.38622      133.831 
9.40783e-06      1.91207      127.349 
9.24229e-06      1.35764      135.000 
9.23721e-06      2.53180      134.040 
1.78875e-05      1.86815      127.606 
8.98779e-06      1.35794      136.193 
8.96805e-06      2.40832      122.106 
8.84075e-06      2.54574      134.363 
8.81575e-06      1.34358      135.603 
8.56937e-06      1.85235      127.983 
8.54492e-06      2.55977      134.683 
8.51581e-06      1.33207      138.652 
