! Center RA: 16 35 15.49298,  Dec: +38 08 04.50043 (2000.0)
! Tentative model.
! Flux (Jy) Radius (mas)  Theta (deg)  Major FWHM (mas)  Axial ratio   Phi (deg) T \
! Freq (Hz)     SpecIndex
 0.0387038     0.101980      11.3099 
0.00401996     0.188680     -122.005 
-0.00109815     0.152315      156.801 
-0.00173889     0.145602      164.055 
-0.00530338     0.126491      161.565 
0.000644729     0.247386     -75.9638 
0.000843630    0.0894427      26.5651 
0.00156189     0.252982     -71.5651 
0.00313139    0.0824621      14.0362 
-0.00107525     0.134164      153.435 
0.00126975     0.184391     -130.601 
0.00176205     0.272029      107.103 
0.000714293    0.0721110      33.6901 
-0.00104507     0.107703      158.199 
-0.00105620     0.263059      8.74616 
-0.000772463     0.128062     -51.3402 
0.000768874     0.228035     -74.7449 
-0.00604564     0.116619      149.036 
3.72079e-05     0.340588     -93.3665 
0.000160827     0.342345     -96.7098 
-0.000320286     0.100000     -53.1301 
0.00582887    0.0632456      18.4349 
9.61338e-05      4.27163     -78.1113 
-0.000920477      6.34656     -73.3353 
-0.000388645     0.260768      4.39871 
0.000362252     0.169706     -135.000 
-0.00162456     0.113137     -45.0000 
0.000700941      4.05265     -85.4712 
0.000578187      4.29120     -78.1664 
0.000706615     0.332866     -122.735 
0.00286583     0.252982      161.565 
0.000318104     0.234094     -70.0169 
0.000239402      5.70712     -69.9140 
-0.000677673     0.243310      9.46232 
0.000158663      6.06541     -71.1468 
-0.000345054      2.29172     -80.4555 
0.000122790      1.81516     -71.3654 
0.000529442      6.06976     -69.3556 
-7.30247e-05      4.54357     -87.7296 
7.26689e-05     0.203961     -78.6901 
0.000346504      6.05898     -71.3258 
0.00129742     0.208806     -73.3008 
0.000462349      4.56508     -81.9409 
-0.000549911      3.01370     -74.2113 
0.000321427      3.08785     -85.9144 
-0.000272781      4.54282     -87.9816 
6.45644e-05      4.08240     -88.0347 
-0.000475389     0.240832      4.76364 
0.000306249      1.83412     -71.5651 
8.41008e-05      3.05221     -65.6182 
0.000257044      2.02830     -49.3987 
-0.000118493     0.644050     -64.2307 
0.000729427     0.784092     -52.2532 
7.49515e-05      4.10078     -88.8822 
0.000114454      3.07044     -65.7723 
0.000160764      5.68834     -69.8448 
-1.95129e-05      5.33895     -66.6041 
0.000175144      4.60717     -64.5473 
0.000402795      3.75713     -72.3367 
-8.96349e-05      5.32060     -66.5186 
-0.000361621      4.26708     -59.5889 
-0.000635445     0.635295     -61.8214 
-0.000536228     0.223607      10.3048 
0.000152857      1.56371     -69.0151 
-0.000748401     0.128062     -38.6598 
0.000255368      1.33701     -55.3591 
0.000174211      4.40291     -87.9174 
0.000188878      3.04401     -65.9611 
-0.000231000      2.28849     -80.9493 
0.000428404      2.44131     -55.0080 
0.000298629      2.01911     -56.3099 
0.000202267      6.21752     -68.8831 
-9.84974e-05      2.51849     -67.1001 
-0.000285829      3.93573     -80.3462 
8.09579e-05      4.10044     -89.1616 
-9.72870e-05      3.84005     -78.2804 
-0.000174836      5.32860     -66.3214 
0.000196956      4.30674     -78.4813 
-0.000358892      5.87473     -75.2068 
2.90245e-05     0.345254     -100.008 
-0.000387246      5.25772     -69.9797 
-0.000437603      4.70549     -71.4110 
-0.000339172      1.58152     -80.5377 
7.35045e-05      3.24549     -76.8201 
0.000432008      4.59861     -64.7724 
1.56034e-05      1.32061     -54.8658 
-0.000201540      2.48677     -64.2593 
8.82287e-05      5.48131     -76.0652 
0.000144370      1.38708     -47.3373 
4.47393e-05      5.32534     -71.8372 
0.000150300      4.36665     -79.9768 
0.000394880     0.247386      165.964 
-0.000155937      2.51078     -67.5206 
8.16868e-05     0.156205     -129.806 
-0.000258937      5.97679     -76.8473 
-0.000208830      3.83604     -78.5729 
8.09830e-05      4.10019     -89.4410 
-0.000372454     0.220907      5.19443 
0.000270365      5.73400     -76.6908 
1.45424e-05      3.20100     -88.5679 
2.84410e-05      3.79816     -75.6711 
-0.000133825      1.87019     -48.4682 
-0.000250443      1.75636     -30.0686 
0.000291625      1.75841     -33.8708 
5.38187e-05      6.04003     -71.2651 
-0.000133513      4.54216     -88.2337 
0.000151329      5.33160     -71.6330 
1.39916e-05      5.12640     -73.6861 
4.03756e-05      1.42338     -72.8381 
1.37595e-05      3.20156     -88.2101 
0.000182904      3.79326     -75.9638 
0.000207035      5.50073     -76.1153 
5.34203e-05      4.84087     -69.6933 
7.86139e-05      3.76261     -87.8676 
6.43210e-05      5.06596     -74.4275 
0.000100909      3.10780     -85.9407 
-0.000147255     0.576888     -33.6901 
0.000134519      3.23067     -76.3939 
-0.000145664      6.24878     -71.9130 
0.000145574      3.18308     -87.4792 
-0.000189495      4.59064     -68.8012 
0.000160239      6.23618     -68.9493 
-0.000243845      4.03792     -69.4107 
-0.000373722     0.144222     -33.6901 
4.18151e-05      3.51295     -82.1467 
0.000125244      4.42366     -87.6680 
0.000382520      4.83396     -69.9156 
2.52379e-05      5.90163     -67.6938 
0.000185607      1.39284     -74.1676 
-0.000179679      4.54070     -76.7595 
-7.10483e-05      6.53364     -72.1751 
0.000172030      4.05428     -85.1894 
0.000151720      4.27874     -65.7112 
1.25040e-05      2.17568     -60.8431 
-0.000108536      4.26708     -83.5412 
-0.000184010      3.00832     -74.5778 
1.23941e-05      6.03364     -71.4449 
-0.000109922      5.44650     -72.6962 
-0.000120546      1.76963     -55.5915 
8.57070e-05      2.19317     -61.0976 
-0.000170413      1.21211     -37.6262 
-0.000139065      1.33701     -68.0394 
-0.000118644      1.85699     -48.9302 
6.59271e-05     0.349285     -76.7595 
0.000127442      6.01468     -71.3843 
0.000106960      2.01296     -62.1619 
0.000157052      5.06063     -74.6456 
-0.000188883      4.24302     -87.8389 
9.87463e-05      4.10005     -89.7205 
-9.78846e-05      4.88201     -60.2842 
0.000108632      3.75239     -69.7299 
4.22004e-05      5.69526     -69.6559 
0.000105130      3.60311     -67.1355 
0.000220456      4.57458     -73.2288 
-0.000368592     0.203961      11.3099 
4.26910e-05      5.55601     -68.2369 
0.000145516      6.36695     -77.6664 
-0.000134917      5.45601     -63.4349 
5.21618e-05      5.90925     -67.5144 
-0.000112058      3.64351     -87.4831 
-0.000172379     0.627694     -59.3493 
-7.09981e-05      6.53979     -72.0083 
-4.99924e-05      4.52584     -63.2085 
-6.11103e-05      1.78617     -55.9541 
-5.99086e-05      2.26106     -74.6115 
3.99950e-05      6.11320     -77.1459 
-1.04196e-05      5.78913     -73.1301 
-6.90785e-05      1.58493     -79.8245 
-1.04022e-05     0.500000     -53.1301 
4.90169e-05      4.06320     -73.7060 
3.91297e-05      1.40071     -46.7357 
1.97425e-05      2.20907     -84.8056 
-3.92838e-05      4.85473     -60.3722 
-3.88794e-05      3.39700     -81.5360 
4.80914e-05      3.80678     -68.4222 
3.87199e-05     0.215407      111.801 
-2.89287e-05     0.516140     -54.4623 
3.83612e-05     0.354401     -73.6105 
4.79800e-05      4.12000     -90.0000 
3.82821e-05      4.50156     -84.3907 
-9.83184e-06      5.27788     -64.4060 
-3.81348e-05      4.51668     -76.9483 
-1.92818e-05      3.01231     -81.6009 
3.82948e-05      5.73864     -76.4965 
-4.78079e-05      5.29940     -74.2328 
2.86805e-05      1.76238     -80.8584 
-1.90586e-05      5.79496     -72.9409 
1.92142e-05      5.48616     -75.8624 
-9.68878e-06      2.52927     -67.6938 
-1.91807e-05      4.22019     -73.1967 
-2.84577e-05      3.67696     -75.5102 
9.59222e-06      4.36321     -80.2354 
2.83326e-05      2.57402     -57.0508 
-2.83315e-05      3.64911     -82.7581 
2.82021e-05      6.22903     -69.1210 
-2.81672e-05      6.34769     -67.3940 
9.53328e-06      2.00808     -56.7847 
1.88954e-05      2.40142     -82.3423 
9.39370e-06      3.02364     -62.4180 
-9.26969e-06     0.943398     -85.1355 
