! Center RA: 04 33 11.09553,  Dec: +05 21 15.61921 (2000.0)
! Established model.
! Flux (Jy) Radius (mas)  Theta (deg)  Major FWHM (mas)  Axial ratio   Phi (deg) T \
! Freq (Hz)     SpecIndex
  0.357821    0.0200000      90.0000 
  0.233352    0.0400000      90.0000 
 0.0295428     0.161245     -97.1250 
 0.0964483     0.181108     -96.3402 
  0.127838    0.0447214      63.4349 
 0.0244214     0.223607     -100.305 
  0.277566     0.121655     -99.4623 
 0.0185947     0.243310     -99.4623 
 0.0122502     0.141421     -98.1301 
  0.150164     0.266833     -102.995 
 0.0950921     0.101980     -101.310 
 0.0749855     0.286356     -102.095 
 0.0376588    0.0632456      71.5651 
 0.0948291    0.0600000      90.0000 
 0.0550945     0.305941     -101.310 
0.00742880     0.329848     -104.036 
0.00729666     0.349285     -103.241 
 0.0121308     0.373631     -105.524 
0.00691136     0.423792     -109.290 
  0.116842    0.0800000      90.0000 
 0.0133531     0.417612     -106.699 
 0.0689068     0.442719     -108.435 
 0.0247530     0.247386     -104.036 
 0.0293588     0.100000     -90.0000 
 0.0642818     0.468188     -109.983 
  0.103549     0.100000      90.0000 
 0.0227198     0.228035     -105.255 
 0.0366128    0.0800000     -90.0000 
0.00412903     0.325576     -100.620 
0.00770740     0.302655     -97.5946 
 0.0162224     0.345254     -100.008 
 0.0290835     0.493964     -111.371 
 0.0510234     0.208806     -106.699 
0.00981014     0.322490     -97.1250 
0.00306508     0.184391     -102.529 
 0.0342988     0.520000     -112.620 
 0.0407034    0.0632456     -71.5651 
 0.0402956     0.342345     -96.7098 
 0.0229428     0.120000      90.0000 
 0.0412416     0.203961     -101.310 
 0.0343682     0.546260     -113.749 
 0.0504819    0.0447214     -63.4349 
 0.0351626     0.121655      80.5377 
 0.0217241     0.364966     -99.4623 
 0.0164439     0.564624     -112.932 
0.00997559    0.0600000     -90.0000 
 0.0223678     0.141421      81.8699 
 0.0145326     0.572713     -114.775 
0.00773244     0.220907     -95.1944 
0.00449660     0.240000     -90.0000 
 0.0137752     0.140000      90.0000 
0.00926924     0.368782     -102.529 
0.00221103     0.196977     -113.962 
0.00788178     0.583095     -112.166 
0.00397707     0.240832     -85.2364 
0.00167473     0.205913     -119.055 
0.00240454     0.243310     -80.5377 
0.00147579     0.582409     -105.945 
0.00136615     0.216333     -123.690 
0.00102335     0.247386     -75.9638 
0.000349442     0.592284     -101.689 
0.000343577     0.581378     -116.565 
0.00533270     0.588558     -99.7824 
0.000943194     0.590593     -118.301 
0.00146092     0.252982     -71.5651 
0.00115931     0.228035     -127.875 
0.00360433    0.0565685     -45.0000 
0.00103676     0.600333     -119.982 
0.000268781     0.152315      66.8014 
0.000264065     0.161245      97.1250 
0.00119467     0.272029     -72.8973 
0.00122816     0.240832     -131.634 
0.00196476     0.404969     -110.225 
0.000258858     0.145602      105.945 
0.00203842     0.610574     -121.608 
0.00199491     0.260000     -67.3801 
0.000254984     0.184391      49.3987 
0.000883105     0.152315      113.199 
0.000487535     0.197990      45.0000 
0.00672014      1.13225     -107.475 
0.00192761     0.161245      119.745 
0.000900985     0.585491     -97.8533 
0.000233446     0.212603      41.1859 
0.00203280     0.228035      37.8750 
0.00125179     0.282843     -135.000 
0.000991550     0.621289     -123.179 
0.00162655     0.172047      125.538 
0.000647734     0.604649     -124.216 
0.000790542     0.784347     -109.359 
0.00184170     0.268328     -63.4349 
0.00142824     0.244131      34.9920 
0.000962720     0.616117     -125.754 
0.000380613    0.0721110     -33.6901 
0.00134309     0.325576     -137.490 
0.000257401     0.266833     -77.0054 
0.000251863     0.379473     -108.435 
0.000472326     0.412311     -112.834 
0.000706788     0.121655     -9.46232 
0.000473191     0.593633     -122.619 
0.000858063     0.340588     -139.764 
0.00124088     0.141421     -8.13010 
0.000219693     0.170880      69.4440 
0.000567075     0.164924      75.9638 
0.000209792     0.429418     -117.759 
0.000202483     0.500000     -126.870 
0.000754138     0.356090     -141.843 
0.00172347     0.577235     -104.036 
0.000381516     0.512250     -128.660 
0.000560010     0.260768      32.4712 
0.000907142      1.36308     -104.444 
0.00161208     0.107703     -21.8014 
0.00118090     0.817068     -111.541 
0.000349871     0.524976     -130.365 
0.000343779     0.277849      30.2564 
0.000805984      1.38752     -105.038 
0.000791726     0.372022     -143.746 
0.000476968     0.538145     -131.987 
0.000476214     0.295296      28.3008 
0.00139226      1.36821     -105.255 
0.000156608     0.286356     -65.2249 
0.00151730     0.277849     -59.7436 
0.00315018     0.809938     -110.225 
0.000818139     0.551725     -133.531 
0.000146569     0.313050      26.5651 
0.000729416     0.178885      63.4349 
0.000761047     0.216333      56.3099 
0.000527790     0.388330     -145.491 
0.000271373      1.43136     -105.396 
0.000400115     0.331059      25.0169 
0.00148621    0.0848528     -45.0000 
0.000378783     0.575847     -110.323 
0.000992283     0.184391      130.601 
0.00122328     0.295296     -61.6992 
0.000872604      1.45602     -105.945 
0.000124751     0.632456     -124.695 
0.000356936     0.349285      23.6294 
0.000121336     0.496790     -130.101 
0.000237931     0.295296      61.6992 
0.000343718     0.509902     -131.820 
0.000397910     0.404969     -147.095 
0.000841378      1.34373     -104.657 
0.000219644     0.644050     -126.158 
0.00199202      2.89800     -110.186 
0.000221812     0.569210     -108.435 
0.000934158     0.313050      63.4349 
0.000111353     0.126491     -18.4349 
0.000416051     0.367696      22.3801 
0.000946349     0.565685     -135.000 
0.00102499      1.03247     -111.595 
0.000192133      1.12641     -106.504 
0.00245158      1.89663     -104.036 
0.000103357     0.388330     -101.889 
0.000295168     0.421900     -148.570 
0.000581067     0.572713     -102.095 
0.000186972     0.386264      21.2505 
0.000419277     0.656049     -127.569 
0.000182408     0.362215     -96.3402 
0.000592876     0.197990      135.000 
0.000498430      1.31469     -103.191 
0.000343912     0.439090     -149.931 
0.000876964      1.47526     -105.732 
0.00125980     0.404969      20.2249 
0.00110162      4.55517     -114.652 
0.000166077     0.145602     -15.9454 
0.00181500      4.78953     -110.024 
8.19658e-05     0.523450     -133.452 
0.000517369      1.31939     -104.036 
0.000814739      1.14560     -106.220 
0.000298022     0.360555     -93.1798 
0.000224289     0.456508     -151.189 
0.000773483     0.580000     -136.397 
7.47926e-05      4.98225     -115.948 
0.00111367     0.322490      60.2551 
0.000412040      4.99103     -116.154 
0.000207328     0.100000     -36.8699 
0.000383159     0.288444     -56.3099 
0.000355127     0.668431     -128.928 
0.000135873     0.483322     -155.556 
0.000481442      2.87924     -106.547 
0.000739363    0.0824621     -75.9638 
0.000252443      2.90496     -110.556 
0.000637192      4.52840     -108.275 
6.57535e-05      1.32439     -104.876 
0.000246193     0.360000     -90.0000 
0.000594489      1.04000     -112.620 
0.00134510      1.69800     -105.018 
0.000611554     0.501597     -156.501 
0.000846543     0.568859     -100.125 
0.000125234      1.37884     -113.962 
0.00173953      2.39633     -104.500 
0.000936932      5.00899     -116.053 
0.000653840      3.30630     -113.153 
0.000231589      4.55390     -115.215 
5.96246e-05      1.31027     -102.339 
0.000273326      1.38708     -114.717 
0.000318718     0.212603      138.814 
0.000214466     0.305287     -58.3925 
0.000268059      2.91204     -110.925 
5.70666e-05      1.28265     -100.784 
0.00139170      3.84635     -109.754 
-0.00103836      6.29597     -123.337 
0.000912218      3.60721     -110.445 
5.60247e-05      1.03788     -115.084 
0.000585329      1.48081     -106.477 
0.000449488      4.33889     -115.384 
0.000574470      1.27906     -99.9042 
0.000546323      5.12640     -110.556 
0.000282013     0.360555     -86.8202 
0.000204654      1.14018     -105.255 
0.000203229      4.54757     -118.932 
0.000645004     0.188680      57.9946 
0.000149075      4.56355     -114.880 
0.000192037      1.04652     -116.075 
5.07769e-05     0.164924     -14.0362 
5.05535e-05      5.14513     -110.478 
0.000352104      2.87360     -106.164 
0.000597315      1.70329     -105.668 
0.000404621     0.594643     -137.726 
0.000143126      1.89188     -103.449 
0.000646134      5.79600     -116.211 
0.00133386      5.11941     -110.346 
9.57021e-05      1.39556     -115.463 
0.000783827      2.91548     -112.166 
0.00104582      4.52217     -108.034 
0.000943311      4.40768     -121.454 
0.000302422     0.300000     -53.1301 
4.81183e-05      4.56246     -115.442 
-0.00113284      2.77417     -118.413 
0.00112042     0.803243     -108.886 
0.000807492      1.91604     -103.891 
4.65534e-05      1.13508     -104.281 
0.000220611     0.520000     -157.380 
0.000251452      4.52040     -118.833 
0.000779226      5.74672     -110.579 
0.000128459     0.228035      142.125 
0.000242876     0.941913     -86.3478 
4.50816e-05      1.40428     -116.200 
0.000210382      1.13772     -100.125 
0.000353729      3.31421     -113.471 
0.00133382     0.814125     -152.176 
8.64332e-05      4.57108     -115.668 
8.59763e-05      1.39542     -117.300 
0.000579245      5.81233     -119.476 
0.000521625      4.33036     -115.145 
0.000188494     0.240832     -4.76364 
0.000349119     0.681175     -130.236 
0.000527691      5.47083     -108.766 
0.000194124      4.99988     -116.360 
0.000353853      1.40471     -118.024 
0.000631863     0.550273     -160.907 
0.000221705     0.362215     -83.6598 
4.03929e-05      4.57200     -115.108 
0.000405139      6.20738     -116.813 
0.000186132      1.05546     -117.051 
0.000188612      1.27577     -99.0193 
0.000490786      5.80486     -116.388 
0.000807485      3.85315     -110.034 
0.000111770      4.57978     -115.894 
0.000477643      5.02143     -111.251 
0.000283133      5.44713     -116.847 
3.81213e-05      1.15117     -97.9893 
7.22317e-05      1.13437     -99.1302 
0.000490091      2.86810     -105.781 
0.000170744     0.312410     -50.1944 
0.000149328     0.244131      145.008 
0.000224610      1.14856     -97.0013 
0.000104498     0.565685     -98.1301 
0.000311279      3.60028     -110.146 
0.000403265      4.53008     -119.055 
0.000339471      5.42973     -111.841 
6.81129e-05      3.86394     -116.432 
0.000188597      5.00879     -116.565 
6.73068e-05     0.943398     -85.1355 
0.000229629      6.14296     -111.386 
3.44285e-05      4.58855     -116.118 
3.42587e-05      1.48661     -107.216 
0.000280355      3.89076     -116.565 
0.000192741      1.29877     -99.7524 
3.37802e-05      1.77539     -112.521 
-0.000225660     0.893756     -130.462 
3.32236e-05      4.58912     -115.560 
3.31982e-05      1.07703     -121.329 
0.000238861     0.260768     -4.39871 
0.000326653      6.21643     -116.977 
0.00121909      3.26741     -118.918 
0.000150508      1.06471     -118.009 
0.000176138      5.31688     -118.782 
0.000189740     0.364966     -80.5377 
9.30569e-05      4.59739     -116.342 
0.000652959      5.45619     -117.035 
0.000206868     0.925419     -83.7966 
0.000162216     0.340000      61.9275 
-0.000989030     0.852760     -129.289 
0.000412286      3.61226     -109.739 
0.000113438      1.78314     -113.114 
0.000168744      6.00193     -117.163 
0.000171394     0.325576     -47.4896 
0.000217247      1.29553     -98.8807 
8.46240e-05      4.60630     -116.565 
0.000282940      4.92443     -119.168 
0.000512685      6.45539     -120.538 
0.000345736      4.79642     -110.248 
0.000538855      1.04785     -113.629 
0.000716162     0.286356      155.225 
0.000235239      2.63795     -107.199 
5.63468e-05      4.08142     -118.700 
5.55568e-05      1.41421     -118.740 
-0.000663594      5.59661     -113.817 
0.000335311      2.92308     -112.529 
0.000213729      6.13570     -111.212 
0.000227528      4.09106     -118.946 
0.000162629      3.87288     -116.697 
9.67422e-05     0.566392     -137.862 
0.000227204      6.18191     -119.883 
7.70393e-05      4.61528     -116.787 
2.62806e-05      5.55194     -119.335 
0.000355191     0.368782     -77.4712 
0.000118752      6.22553     -117.141 
0.000281742     0.280713     -4.08562 
4.99224e-05      4.03708     -112.118 
7.49994e-05      5.80252     -119.304 
0.000118885     0.569210     -161.565 
4.96742e-05     0.339411     -45.0000 
0.000165742      5.56176     -119.515 
2.54562e-05      3.33035     -114.102 
0.000160357      1.42394     -119.445 
0.000133408      2.86273     -105.396 
0.000196269      1.92094     -104.470 
0.000483734      2.26504     -119.055 
0.000163014      1.29259     -98.0047 
2.48561e-05      2.93993     -104.982 
0.000114032      1.78101     -114.550 
4.85117e-05      6.66276     -113.718 
7.17373e-05      1.47513     -102.529 
0.000340814      2.02158     -92.2680 
0.000115970      3.30847     -103.280 
0.000262365      5.32654     -118.971 
0.000330377     0.696563     -129.174 
9.17562e-05      4.62433     -117.008 
0.000110761      4.41814     -121.675 
0.000321223      3.60555     -109.440 
0.000461472      5.43721     -112.036 
6.80155e-05      5.01777     -116.769 
0.000266570      6.67083     -113.875 
6.92007e-05      5.79275     -119.131 
0.000414062      2.64394     -107.613 
0.000259028      6.19190     -120.043 
0.000198066      4.51602     -107.793 
-0.000233877      4.34677     -104.931 
-0.000598529     0.840238     -128.234 
2.33380e-05      3.33856     -114.416 
0.000218963      5.47730     -108.964 
0.000161488      2.95418     -104.507 
0.000339898      2.39140     -104.036 
0.000148937      4.10078     -119.190 
2.25936e-05     0.353836     -42.7094 
6.03058e-05      1.43388     -120.141 
6.56621e-05      1.47092     -101.768 
0.000313785      4.93421     -119.370 
-0.000166881      6.28500     -123.184 
-6.51693e-05      5.33104     -113.199 
6.36198e-05      5.78304     -118.958 
0.000351442     0.368782     -40.6013 
0.000162645      3.59344     -109.847 
0.000162054      3.30394     -102.943 
0.000102209      1.28996     -97.1250 
-0.000624811      5.34943     -113.114 
0.000102158      1.52552     -124.315 
8.31509e-05      6.23468     -117.305 
4.13751e-05      3.34688     -114.727 
0.000179923      5.57164     -119.694 
2.10772e-05      2.92657     -111.656 
-0.000677851      5.60689     -113.547 
-0.000158213      5.55989     -107.588 
0.000138735      5.73972     -110.392 
2.09521e-05      5.02681     -116.973 
0.000115723      4.63344     -117.229 
0.000224909      1.46697     -101.004 
0.000688544      1.79254     -125.463 
0.000171233      4.50994     -107.551 
2.02514e-05      5.01813     -117.280 
3.97469e-05      5.77339     -118.785 
-0.000633231      1.61555     -121.329 
-0.000413245      3.11589     -119.197 
0.000274131      6.24388     -117.468 
0.000206886     0.620967     -165.069 
-0.000886120     0.772528     -158.749 
0.000352529      4.11057     -119.434 
0.000190749      5.02733     -117.483 
1.95907e-05      3.35529     -115.038 
0.000167151      4.42868     -121.896 
0.000397876     0.684105     -127.875 
0.000215408      2.93401     -112.019 
0.000137695     0.581378     -139.185 
-0.000108621      4.01168     -103.551 
0.000110079      1.53688     -124.931 
7.29181e-05      5.76378     -118.610 
3.72632e-05      3.36381     -115.346 
8.98728e-05      6.44525     -120.384 
-8.05038e-05     0.920217     -132.357 
-0.000235404      5.25178     -120.178 
0.000330774     0.927793     -82.5686 
-0.000214495     0.829699     -74.6237 
0.000131384      6.20194     -120.203 
-0.000103080      6.30175     -123.085 
3.63107e-05      5.99283     -116.993 
-0.000234161      4.35196     -105.186 
0.000455813      5.44474     -112.231 
8.71143e-05      3.31475     -102.191 
-0.000182451      5.56597     -107.784 
1.82245e-05      4.06728     -107.455 
0.000167790      5.73278     -110.205 
-0.000492466    0.0565685      135.000 
1.80682e-05      6.86044     -121.651 
5.31752e-05      3.87195     -109.933 
0.000157993     0.300666     -3.81407 
5.19130e-05      3.37242     -115.653 
0.000221302      1.05603     -114.624 
-8.30813e-05      2.76471     -118.048 
0.000269341      2.00808     -95.1428 
0.000174659      6.87095     -121.793 
0.000158078      4.09238     -107.638 
0.000102691     0.640312     -165.530 
-0.000217859      1.72290     -86.6726 
0.000159873     0.796994     -107.526 
0.000118274      4.50395     -107.308 
0.000108919      1.28763     -96.2419 
-0.000502379      3.72543     -109.116 
6.37623e-05      3.89974     -116.828 
6.57816e-05      5.75423     -118.436 
0.000129621      2.95005     -98.1850 
7.96917e-05      6.67895     -114.032 
0.000123735      4.64263     -117.448 
-0.000215348      3.99224     -103.619 
0.000109292      1.46328     -100.235 
0.000122866      1.54842     -125.538 
3.14150e-05      1.14630     -96.0090 
0.000152682      3.55077     -104.349 
-0.000213064      3.08992     -103.856 
-0.000139614     0.824621     -75.9638 
-0.000152699      2.82305     -97.3264 
4.61356e-05      2.27482     -119.495 
-0.000217093     0.828010     -127.147 
0.000121710      3.29952     -102.604 
0.000242201      3.59894     -109.140 
0.000110175     0.588218     -162.181 
0.000104974      5.48383     -109.162 
0.000107783      1.69293     -104.365 
0.000136320      2.28035     -111.615 
4.72188e-05      6.67248     -116.335 
0.000180084      4.49444     -106.015 
5.97955e-05      3.38112     -115.959 
-0.000192199      5.34161     -112.917 
8.95359e-05      4.80337     -110.472 
4.46252e-05      6.12849     -111.038 
3.07537e-05     0.107703     -111.801 
-5.91446e-05      6.46965     -111.966 
0.000102712      2.95296     -98.5691 
7.29905e-05      5.03659     -117.684 
0.000101850     0.607289     -162.759 
7.26756e-05      6.66363     -116.181 
4.40233e-05      5.74474     -118.260 
7.23475e-05      5.72591     -110.017 
-0.000115847      1.04346     -77.8285 
-8.73005e-05      4.35725     -105.440 
2.92870e-05      6.68542     -114.572 
4.34825e-05    0.0824621     -104.036 
-8.61692e-05      1.58808     -121.088 
-7.15880e-05     0.816088     -126.027 
-5.68302e-05      5.57211     -107.980 
2.86542e-05      1.82395     -93.7723 
-5.68795e-05      2.75136     -107.776 
-5.66906e-05      3.13337     -119.019 
2.82724e-05      1.68808     -103.707 
1.42573e-05      1.56013     -126.135 
1.42612e-05      1.14438     -95.0131 
1.41830e-05      2.37200     -104.153 
1.40558e-05     0.523450     -136.548 
1.39786e-05      2.72389     -97.5946 
1.39685e-05      5.33625     -119.159 
0.000237621      5.93087     -117.516 
6.74312e-05     0.398497      17.5256 
0.000250162      4.86806     -114.775 
0.000130003      5.94861     -117.427 
0.000113361      4.84991     -114.874 
0.000116985      5.97558     -117.508 
0.000130693      4.84153     -114.659 
0.000111469     0.412311      22.8337 
0.000131647      1.40428     -107.403 
0.000152488      4.82336     -114.759 
0.000241696     0.420476      25.3462 
8.38137e-05      6.00257     -117.590 
4.05497e-05      6.02030     -117.501 
6.13917e-05      3.90036     -115.514 
0.000336697      1.39843     -106.621 
3.88910e-05      3.88232     -115.641 
3.80739e-05      6.04728     -117.582 
5.59903e-05     0.392938      14.7436 
1.89663e-05      3.30775     -108.325 
1.88054e-05      3.86430     -115.769 
3.69547e-05      3.26350     -108.213 
1.85142e-05      6.07427     -117.662 
3.58183e-05      3.87303     -116.036 
3.60271e-05      6.10128     -117.741 
3.57837e-05      3.23827     -107.987 
1.75327e-05      6.12830     -117.820 
3.44484e-05     0.362215      6.34019 
5.16463e-05      3.21310     -107.758 
1.72118e-05      6.15532     -117.897 
1.71646e-05      3.88186     -116.301 
1.70638e-05      5.63507     -117.020 
3.32532e-05      6.18236     -117.974 
3.30211e-05      3.18798     -107.526 
1.62887e-05      5.60817     -116.931 
4.70388e-05      3.16291     -107.289 
3.20268e-05      6.21884     -118.213 
3.15940e-05      3.84604     -116.565 
1.56930e-05      5.58129     -116.841 
3.09574e-05      3.14382     -107.398 
3.08424e-05      1.42338     -107.162 
4.57425e-05      6.24593     -118.288 
1.52399e-05      2.36947     -111.801 
4.48618e-05      3.85502     -116.831 
2.99688e-05     0.297321     -109.654 
4.41838e-05      5.56345     -116.934 
5.82355e-05      2.35091     -111.982 
2.93154e-05      3.13790     -107.049 
4.32520e-05      6.27302     -118.363 
2.86432e-05      1.41760     -106.390 
1.44074e-05      4.80521     -114.858 
2.84644e-05     0.323110     -111.801 
2.84507e-05      3.83719     -116.966 
1.42591e-05      3.15702     -106.943 
