! Center RA: 04 18 21.28000,  Dec: +38 01 35.76000 (2000.0)
! Established model.
! Flux (Jy) Radius (mas)  Theta (deg)  Major FWHM (mas)  Axial ratio   Phi (deg) T \
! Freq (Hz)     SpecIndex
  0.100551    0.0282843     -135.000 
 0.0699719     0.277849      59.7436 
 0.0648194     0.250599      61.3895 
 0.0886907    0.0200000     -90.0000 
0.00348695     0.223607      63.4349 
0.00246913     0.295296      61.6992 
0.00242606     0.196977      66.0375 
 0.0193391     0.322490      60.2551 
 0.0212029     0.178885      63.4349 
 0.0333547     0.152315      66.8014 
 0.0144257    0.0447214     -116.565 
0.00540173      2.27482      60.5050 
 0.0105202     0.340000      61.9275 
 0.0220545      2.26504      60.9454 
 0.0241038    0.0400000     -90.0000 
 0.0229119     0.367151      60.6422 
0.00146746      2.29225      60.7512 
0.00138589      2.28254      61.1892 
0.00133152      2.33529      61.8986 
0.00549926      2.35296      62.1280 
0.00642641      2.24758      60.6978 
0.00934895      2.37065      62.3540 
0.00768559      2.22036      60.8953 
0.00439192     0.134164      63.4349 
0.00342715      2.38839      62.5766 
0.00441426      2.41537      62.3740 
 0.0303862     0.107703      68.1986 
0.00530725      2.19317      61.0976 
 0.0128964    0.0632456     -108.435 
0.00105735      2.45967      63.4349 
0.00102893      2.50440      63.4349 
0.00525286     0.241661      65.5560 
0.00196079      2.54031      62.8297 
0.00288380     0.394462      59.5345 
0.00284132      2.17568      60.8431 
0.000978627      2.53124      63.2325 
0.000961019      2.20291      60.6422 
0.00524044      2.55812      63.0343 
0.00261432      2.39767      62.1524 
0.00517945     0.286356      65.2249 
0.00177974     0.411825      60.9454 
0.000893957      2.47758      63.6418 
0.000887154      2.12132      61.2602 
0.000866701      2.14849      61.0490 
0.00404724     0.439090      59.9314 
0.000848177      2.10381      60.9983 
0.00137627      2.07663      61.2134 
0.00437432      2.05913      60.9454 
0.000803367      2.56726      62.6365 
0.00156437      1.76238      62.2717 
0.00224425      2.46876      64.0577 
0.00664152     0.268328      63.4349 
0.00816702      2.58503      62.8402 
 0.0175668    0.0824621     -104.036 
0.00149699      2.28079      63.4349 
0.00186794     0.260000      67.3801 
0.00149143      1.77178      61.6992 
0.00265864      2.23016      60.4463 
0.00917727     0.456508      61.1892 
0.00213666      2.01445      60.8901 
 0.0117413     0.655134      58.7363 
0.00345525      2.38000      61.9275 
0.00761911      1.74471      61.9661 
0.00250060      2.27192      63.8861 
0.00307871      2.46008      64.4766 
0.00249584      1.92510      60.7719 
0.00238122      2.25397      63.6623 
0.00344948      2.03194      61.1645 
0.00165855      2.25743      60.2551 
0.00323605      2.40707      61.7315 
0.00594422      1.89789      61.0040 
0.00323724      2.60284      63.0412 
0.00149190      1.71767      62.2415 
0.00292466      2.45153      64.8984 
0.00789161     0.823650      60.9454 
0.00201398      1.72708      61.6543 
0.00473846      2.24517      64.1197 
0.000964982      2.04949      61.4342 
0.00189217      2.61197      62.6501 
0.000963911      2.00479      61.3895 
0.00185299      2.24009      60.0013 
0.00166866      2.41661      61.3139 
0.00516653     0.483735      60.2551 
0.00312089     0.841190      61.6070 
0.00211381      2.53527      60.1991 
0.00405790      1.70000      61.9275 
0.00527402    0.0800000     -90.0000 
0.00528727     0.627694      59.3493 
0.00167562      2.02237      61.6609 
0.00244776      2.62975      62.8503 
0.00372876      2.44311      65.3231 
0.000875687      2.38948      61.5044 
0.00708165      1.02956      60.9454 
0.00118829      2.25016      59.5603 
0.000392058     0.188680      57.9946 
0.000387208      1.99529      61.8937 
0.00108648      2.01296      62.1619 
0.00263539     0.304631      66.8014 
0.00315683      2.54527      59.8084 
0.00182268     0.101980     -101.310 
0.00269417      2.64756      63.0478 
0.000703146      2.26035      59.1232 
0.00233121      1.68238      61.6070 
0.00163781      2.23652      64.5807 
0.000338134      2.13101      60.7887 
0.000649363      2.00370      62.6676 
0.000643016     0.107703     -111.801 
0.000942599      1.87072      61.2429 
0.00221459     0.796492      61.5044 
0.000328625      2.39908      61.0846 
0.000326417      2.28779      58.9503 
0.00122034      1.99459      63.1780 
0.000317589     0.216333      56.3099 
0.000313090      2.27068      58.6900 
0.00110731      2.42627      60.8995 
0.00200476      2.43483      65.7508 
0.000308029     0.528394      60.5241 
0.000304497      1.85321      60.9454 
0.000595788      2.29817      58.5232 
0.000597723      1.66481      61.2797 
0.00425837      1.31529      61.8763 
0.000591011      2.21847      64.3590 
0.00232006      2.67447      62.8601 
0.00193083      1.00240      61.3895 
0.000297128     0.144222     -123.690 
0.000292941      1.33297      62.2815 
0.000823461     0.244131      55.0080 
0.000288519      1.63768      61.5571 
0.000288452     0.331059      64.9831 
0.000837864      1.78101      65.4495 
0.000915528     0.172047     -125.538 
0.00254423     0.511077      59.4208 
0.000283546      2.14084      60.3215 
0.00128059      1.88043      60.7086 
0.000800512      1.62012      61.2202 
0.00156236      2.20989      64.8265 
0.000951343     0.751798      61.3895 
0.00132416      2.28114      58.2609 
0.000277571      2.01296      64.7080 
0.00167089    0.0824621      75.9638 
0.000881586      1.97677      62.9165 
0.00127224      1.60262      60.8759 
0.000766262     0.323110      68.1986 
0.00325293      2.69229      63.0543 
0.000516906      2.03106      64.9490 
0.000516502      1.77279      66.0375 
0.00247176      2.55539      59.4208 
0.00143779     0.184391     -130.601 
0.00113782      2.45308      65.9427 
0.000495838     0.583095      59.0362 
0.000492867     0.778974      60.8025 
0.00135790     0.256125      51.3402 
0.000487865      1.79922      65.7142 
0.00334698    0.0632456     -71.5651 
0.000245840      2.08634      60.7320 
0.00136513      2.42668      66.1813 
0.000242989      2.04088      65.6955 
0.000242868      2.30868      58.0998 
0.00211617      2.29172      57.8356 
0.000234586      2.04919      65.1858 
0.00254573      1.79109      66.2974 
0.00144199     0.349285      66.3706 
0.000351978      1.58518      60.5241 
0.000231138      2.12349      60.0543 
0.000229574      2.77308      64.3590 
0.000858968      2.22800      65.0452 
0.000857328      1.62825      62.1759 
0.000657893     0.680000      61.9275 
0.000405434      2.05913      65.9245 
0.00107138      1.56780      60.1645 
0.00126086      2.79113      64.5367 
0.00172219     0.538516      58.6713 
0.000223232      1.90767      60.4786 
0.000219566      2.09619      60.2551 
0.000807480      2.08557      65.6470 
0.00158830     0.212603     -131.186 
0.000420357      1.86301      60.4077 
0.000413362      2.52800      59.5804 
0.00226369     0.868332      61.0736 
0.00152213      1.04709      61.4769 
0.000209279      2.18330      65.0782 
0.000782622     0.724707      62.0205 
0.00287559     0.101980      78.6901 
0.000202075      2.36618      67.1194 
0.00123193      2.20145      65.2976 
0.00109278     0.913017      61.1892 
0.00103387      1.55048      59.7968 
0.000919922     0.269072      48.0128 
0.000556025      1.87297      59.8757 
0.000196374      2.06891      60.4612 
0.000195599      1.07424      61.0490 
0.000558315      1.61901      62.8019 
0.000193615      2.41868      66.6148 
0.00182380      2.80920      64.7120 
0.00190835      1.09179      61.5571 
0.000189330      2.44499      66.3706 
0.000188278      1.84564      60.1011 
0.000368991      1.28825      62.2415 
0.000460298      2.34000      67.3801 
0.00180346      2.30243      57.4143 
0.000345098      2.53819      59.1911 
0.000528871      2.07885      59.9816 
0.000841670      2.47136      66.1317 
0.000841433      2.56562      59.0362 
0.000348763     0.697711      62.7004 
0.00406931     0.226274     -135.000 
0.000176401      2.43606      60.4885 
0.000404679      2.35847      67.5670 
0.000173468      2.27482      57.5674 
0.000614921     0.341760      69.4440 
0.000499435      1.60997      63.4349 
0.000789121      2.07740      66.1495 
0.000171142      1.26127      62.6223 
0.000778402      1.81747      65.9735 
0.00128412      2.33238      67.8337 
0.000779942      1.85569      59.5658 
0.000325706      1.52315      60.0685 
0.000166789      1.34239      61.5258 
0.000166479     0.375766      64.7989 
0.000309113      1.98565      63.6930 
0.000575674     0.975295      61.8584 
0.000164999     0.604649      55.7843 
0.000521901      1.23434      63.0198 
0.000317044     0.688767      64.1790 
0.00102092     0.282843      45.0000 
0.000445457      1.11893      61.1443 
0.000947621      1.36953      61.1892 
0.000462141      2.08892      59.5066 
0.000159837     0.769415      62.1027 
0.000158033     0.576888      56.3099 
0.000157161      2.44598      60.0808 
0.000596801      1.60112      64.0751 
0.000878695      2.83584      64.5193 
0.00166857    0.0824621     -75.9638 
0.000399120     0.402492      63.4349 
0.000710731      2.54849      58.8049 
0.000288361      2.46333      66.5571 
0.00105410      1.22540      63.8532 
0.000150263     0.616117      54.2461 
0.000413429     0.957706      61.2940 
0.000147572      2.17495      65.5560 
0.000417943     0.653911      66.5713 
0.000267418      2.25796      57.2953 
0.000287371      2.48966      66.3179 
0.000410338      1.88308      59.3493 
0.000143080     0.628013      52.7652 
0.00120611      1.39671      60.8657 
0.000657664      2.19317      65.7723 
0.000277065      2.06155      59.7036 
0.00121530      1.80942      66.5519 
0.000260896      1.13649      61.6310 
0.000658984      2.33006      57.2648 
0.00117111      2.70141      62.6761 
0.000270607      2.86252      64.3301 
0.000497003      2.23034      57.4500 
0.000523778      1.59248      64.7223 
0.000392438      2.57597      58.6548 
0.000264262     0.668431      51.0725 
0.000390566      2.09571      66.3706 
0.000134079      2.45601      59.6764 
0.000510803      2.48169      66.7408 
0.000601752      2.32491      68.2901 
0.000471734     0.429418      62.2415 
0.000254332      2.07171      59.2260 
0.000251240      2.88922      64.1445 
0.000253874     0.120000      90.0000 
0.00108749     0.646220      68.1986 
0.000245257      2.20273      57.6086 
0.000244819      1.86590      59.0362 
0.000125779      2.46617      59.2753 
0.000289723      1.58405      65.3764 
0.000125121     0.335261      72.6460 
0.000241538      2.89800      63.7886 
0.000459712     0.681175      49.7636 
0.000573250     0.297321      42.2737 
0.000121949      1.96540      58.7363 
0.000984111      2.55891      58.4218 
0.000522916     0.549181      56.8887 
0.000119750      1.97687      64.2127 
0.000119306      2.47386      67.1663 
0.000764667      2.37453      57.3808 
0.000477051     0.200998      95.7106 
0.000856319      2.30634      68.1063 
0.000546578      2.08777      66.8735 
0.000884385      1.55756      65.7387 
0.000437794     0.100000      90.0000 
0.000922646      1.78314      66.8858 
0.000116490      2.50008      66.9218 
0.000116237      2.05456      58.9406 
0.000115014      1.83848      59.2500 
0.000208998     0.521536      57.5288 
0.000431409      2.78259      64.9085 
0.000218385     0.282843      81.8699 
0.00133395      2.92479      63.6102 
0.000542234      2.49231      67.3448 
0.000112967      1.99289      58.5432 
0.000408515      2.16675      66.0375 
0.000111237     0.367696      67.6199 
0.000511037      1.97585      58.2405 
0.000416770      1.21672      64.6986 
0.000109112      2.21350      57.1715 
0.000311935      1.82132      58.9283 
0.000107821      2.45935      58.6367 
0.000651516    0.0800000      90.0000 
0.000939662      2.24116      57.0190 
0.000291025      1.59512      59.8987 
0.000470552      2.06155      67.1663 
0.000281062      2.08202      58.7531 
0.00100450      2.28035      68.3852 
0.000729420     0.312410      39.8056 
0.000630203     0.694262      48.5035 
0.000574734      2.51078      67.5206 
0.000635470    0.0894427     -63.4349 
0.000435378     0.220907      95.1944 
0.00114234      2.41901      57.4925 
9.90184e-05      1.95018      64.4861 
0.000526395     0.393954      66.0375 
0.000445271      2.77417      65.2826 
0.000445599      2.58643      58.2764 
0.000899636      2.40217      57.2361 
9.49238e-05      1.24338      64.2593 
9.48028e-05      1.80422      58.6005 
0.000360143      2.71065      62.3005 
0.000490035      1.54945      66.4130 
0.000345178      2.43590      57.7453 
9.30665e-05     0.260000      90.0000 
0.000268331      2.00340      58.0552 
0.000260644      1.77020      57.9260 
0.000239955      1.57582      66.0375 
0.000176149      2.52927      67.6938 
8.99719e-05      1.20830      65.5560 
0.000987256      1.06471      61.9908 
0.000256052    0.0600000      90.0000 
0.000171768      2.60346      58.5078 
0.000338032     0.639062      69.8637 
0.000171737      1.30599      62.6501 
0.000269548      2.50320      67.9436 
0.000168716     0.240832      94.7636 
8.62997e-05      1.46123      59.5742 
8.59421e-05      2.10950      58.5704 
8.55774e-05      1.92354      64.7672 
8.55067e-05      1.20017      66.4253 
8.51145e-05      2.18504      66.2505 
8.49584e-05      2.28561      57.1443 
0.000247108      1.77539      67.4794 
0.000359655      1.75328      57.5789 
8.43623e-05      1.95888      57.9326 
8.42297e-05     0.560357      55.1755 
0.000494463      2.05387      67.6806 
0.000162158      2.72000      61.9275 
8.25438e-05      1.98645      57.7500 
0.000161962      2.52175      68.1142 
8.07635e-05      1.19231      67.3062 
8.00378e-05      2.93373      63.2603 
0.000915607      1.95151      65.7990 
0.000263455      2.65187      60.1479 
0.000878085      1.92510      66.0980 
0.000131767     0.940213      60.7086 
0.000259068      2.68328      63.4349 
0.000501749      1.72186      59.2645 
0.000822311      2.41479      58.5479 
0.000126879      2.39775      58.2986 
0.000581298      2.66188      59.7746 
0.000124635     0.895545      60.5725 
0.000124586      2.25211      56.5922 
0.000244503      2.69236      64.0060 
0.000347081      2.23544      56.3099 
0.000997754     0.223607      79.6952 
0.000337682      2.03096      57.8750 
0.000117696      1.66517      65.8978 
0.000117362      2.68365      64.3898 
0.000116481      1.74929      59.0362 
0.000416960      1.41421      61.2602 
0.000114078      2.70170      64.5731 
0.000113847      1.10941      62.0490 
0.000322401      1.64694      65.6136 
0.000323401      2.89012      65.0310 
0.000111239      1.73217      58.6959 
0.000110846     0.632456      55.3048 
0.000110465      1.21655      62.5924 
0.000216637      2.69318      64.9574 
0.000216006      2.10618      67.0872 
0.000364823      1.43178      61.6450 
0.000604270     0.644050      53.8418 
0.000107459      2.46617      67.5946 
0.000211380      0.00000      0.00000 
0.000106478      1.75966      58.4778 
0.000582151      2.21883      56.0235 
0.000202328      2.91671      64.8407 
0.000205835      2.42924      67.2350 
0.000395948      2.40832      57.8937 
0.000103844      1.60125      62.4748 
0.000570107      2.67200      59.4040 
0.000102929      2.15081      67.0113 
0.000195694      2.68477      65.3441 
0.000287135     0.200998      84.2894 
0.000196627     0.420476      64.6538 
0.000611176      2.01405      57.5724 
0.000461049      2.90826      65.1973 
0.000131561      2.17706      66.7323 
9.96544e-05      1.74264      58.1340 
0.000189288      2.42528      58.1449 
0.000443699    0.0632456      71.5651 
0.000188693      1.80155      67.1355 
0.000348566      2.70296      65.5210 
0.000276340      2.38462      67.3062 
0.000179563      1.03769      62.4472 
9.67757e-05      1.61059      65.0261 
0.000583319    0.0600000     -90.0000 
9.65473e-05      2.08000      67.3801 
0.000272393      2.54778      67.8645 
9.36783e-05     0.312410      50.1944 
9.33021e-05      1.63878      66.2505 
0.000179003      2.19545      66.9385 
9.26521e-05      1.27906      63.0343 
0.000623449     0.465188      64.5367 
0.000559094      1.05546      62.9494 
0.000493121     0.656049      52.4314 
0.000176232     0.297321      47.7263 
8.92591e-05      1.60225      65.6744 
8.88748e-05      2.22171      66.6660 
0.000328976      1.25220      63.4349 
0.000165117      1.72325      68.1986 
0.000393800     0.200000      90.0000 
0.000161506     0.831865      62.8189 
8.51810e-05      2.29539      67.4569 
0.000601987      2.68224      59.0362 
0.000317134      2.20227      55.7327 
0.000164829      1.76409      57.0306 
0.000165696      2.92643      65.3616 
0.000381849      2.54032      68.2824 
8.31668e-05      2.24009      66.8686 
0.000314342     0.311127      45.0000 
0.00137079     0.200000     -126.870 
0.000158106      1.74929      67.8337 
8.23834e-05      2.03539      67.4668 
0.000160807     0.814125      62.1759 
0.000144048      1.44139      60.9454 
8.12358e-05      2.56632      68.0328 
8.03735e-05      1.94340      66.3369 
8.01689e-05      2.71131      65.1363 
0.000142432      2.21387      67.1412 
0.000156661      2.91815      65.7185 
0.000280025      2.55726      56.8071 
0.000152433      1.77505      56.4890 
0.000148609      2.31387      67.6468 
0.00110343    0.0400000      90.0000 
0.000207629      2.26927      67.7297 
7.42031e-05     0.943398      57.9946 
7.40251e-05      2.90998      66.0775 
0.000141711      1.29692      63.4349 
0.000122989      1.89874      66.4052 
7.32990e-05      1.08240      62.4880 
7.26939e-05      2.71301      66.0804 
0.000612235      2.02485      57.0948 
0.000273359     0.804984      63.4349 
7.19064e-05      2.93639      65.8790 
0.000138926      1.46860      60.6422 
7.17994e-05     0.536656      63.4349 
0.000875282      2.02781      67.9887 
0.000140589      1.78617      55.9541 
0.000619493     0.325576      42.5104 
0.000365593      1.71593      68.8187 
7.10371e-05      2.81887      61.6166 
0.000200041      2.21359      55.3048 
7.05254e-05     0.652993      49.9697 
7.04584e-05      2.23231      67.3406 
0.000251617      1.27012      63.8384 
0.000202069      2.92828      66.2362 
0.000197740      2.70496      66.4677 
0.000132614      1.74184      68.4429 
6.85845e-05     0.220000      90.0000 
0.000133144      2.82312      59.8020 
0.000313550     0.666033      48.6522 
0.000133459      2.51436      68.5371 
6.78694e-05      2.91589      63.0834 
6.66827e-05      1.79744      55.4258 
6.65323e-05     0.554617      64.3590 
0.000249356      1.07331      63.4349 
6.60621e-05      2.72683      59.1083 
6.57328e-05     0.965194      55.9807 
0.000187585      1.80887      54.9042 
0.000176833     0.483322      65.5560 
6.41461e-05      2.23007      55.5973 
6.39027e-05      2.92500      62.7341 
0.000397950      2.53298      68.7026 
0.000226886      1.53114      66.1135 
0.000124202      2.92027      66.5953 
0.000147727      1.91708      66.6444 
0.000121229     0.664831      68.8387 
0.000176270     0.976524      55.0080 
0.000417510      2.37697      67.7510 
0.000175968      2.83323      59.4524 
6.08605e-05      2.66511      58.8150 
6.02401e-05      2.28779      67.9196 
6.01320e-05      2.90723      62.5535 
6.00068e-05     0.796241      64.7223 
5.96307e-05      2.71035      64.1913 
0.000167828      2.56827      56.4337 
0.000172806      2.94659      66.3929 
5.92073e-05      1.31484      63.8247 
0.000168209      2.22504      54.8814 
0.000337610      2.26177      68.1986 
5.84552e-05      1.82044      54.3891 
0.000166528      2.71544      67.0231 
5.78856e-05      1.47851      59.9667 
0.000507477      2.69258      58.6713 
0.000107025     0.456946      66.8014 
5.67963e-05      1.12161      68.0089 
5.67167e-05      1.80422      54.0193 
0.000158750      2.91650      62.2049 
5.64393e-05     0.683520      69.4440 
0.000157237      2.24321      68.0089 
0.000107702     0.240000      90.0000 
5.55447e-05      1.87243      66.7211 
0.000159855     0.679412      47.3859 
0.000160235      1.81604      53.5087 
0.000154230     0.528015      65.3764 
5.47599e-05      1.10018      62.9691 
0.000106139     0.814371      65.3231 
0.000351688      2.93864      66.7502 
7.05173e-05      1.47146      58.9027 
0.000151090      1.70880      69.4440 
0.000154261      2.84345      59.1054 
0.000240221     0.988130      54.0579 
0.000102941      1.11427      68.9625 
0.000102937     0.676757      71.0296 
0.000100309      1.33282      64.2040 
0.000496902      1.14612      60.7512 
0.000147739      2.22036      54.1623 
5.10843e-05      1.47567      57.1715 
5.10134e-05      2.71912      63.8119 
0.000503942     0.340588      40.2364 
0.000814447      2.67552      58.4486 
0.000322332      1.74734      56.6737 
4.94175e-05      2.70769      67.4127 
4.93295e-05      1.46997      56.0937 
0.000269271     0.693109      46.1691 
0.000229551      1.82800      53.0047 
0.000137307      2.50711      68.9625 
0.000137519      2.56281      55.8139 
4.86756e-05      1.48647      66.1941 
0.000149888     0.708802      73.6105 
0.000604437      2.03578      56.6222 
9.33602e-05      1.69009      69.2059 
9.31038e-05      2.73386      67.1867 
4.76365e-05     0.280713      85.9144 
0.000256432      1.10725      69.9285 
0.000257471      2.87089      58.9678 
0.000132045      2.55163      68.8658 
9.20728e-05      1.48122      55.4516 
4.68066e-05     0.832586      65.8978 
8.90208e-05      1.50479      66.5014 
4.63502e-05      2.93421      62.3870 
4.58409e-05     0.501597      66.5014 
0.000209983      2.23213      53.7462 
8.60979e-05      2.93080      67.1094 
8.75718e-05      1.06827      51.8428 
4.45316e-05     0.184391      102.529 
4.43968e-05      1.44180      66.2796 
4.42587e-05     0.475395      67.7510 
4.42145e-05      2.72800      63.4349 
4.38278e-05      1.30614      64.6121 
0.000126412      2.96493      66.5477 
0.000241554      1.68309      69.8424 
8.54447e-05     0.722772      75.5792 
0.000162812      1.47635      54.3721 
8.26712e-05      2.75231      67.3481 
8.37424e-05     0.546260      66.2505 
9.82882e-05      2.92588      61.8584 
8.28294e-05     0.302655      82.4054 
0.000141777      2.39550      67.9321 
0.000117579     0.203961      101.310 
7.95966e-05      2.72617      67.5741 
0.000141143     0.850882      66.4477 
0.000317971      1.84011      52.5073 
7.97635e-05      1.41549      66.6951 
0.000978776     0.216333     -123.690 
7.96466e-05     0.737564      77.4712 
0.000185329      1.08074      51.0090 
0.000219662      2.52579      69.1254 
0.000113089      2.57410      55.4456 
0.000204245     0.564624      67.0679 
0.000167696      1.15603      59.8863 
0.000481181      2.38537      56.9761 
0.000215941      2.95703      66.9032 
0.000364978     0.707107      45.0000 
3.86336e-05      2.23580      68.4841 
9.36700e-05     0.398497      72.4744 
0.000364657     0.733485      78.9965 
0.000190068      2.94354      62.0420 
0.000176097      2.00928      67.7750 
3.77136e-05      1.32424      64.9831 
0.000397712      2.25442      68.6705 
3.74446e-05      1.52315      66.8014 
3.73134e-05      2.88125      58.6270 
7.32925e-05      2.24401      53.3344 
0.000160088      2.76391      62.8787 
0.000171574      1.48809      53.7462 
0.000252903      1.08167      70.5600 
6.95952e-05      2.78927      67.6646 
0.000265368      8.55439      65.1126 
3.62506e-05      1.43388      67.0113 
3.61788e-05     0.349285      76.7595 
0.000103929      2.89834      58.8328 
0.000101995      2.99125      66.3487 
0.000101611      1.67631      70.4841 
0.000309322     0.189737      108.435 
3.50966e-05      2.57029      69.0265 
6.86539e-05      1.40769      67.4428 
3.46632e-05      2.74467      67.7334 
0.000320120      2.22800      53.0272 
3.45220e-05     0.345254      79.9920 
0.000312424      2.05251      56.9293 
0.000557287      6.27101      64.4974 
9.71239e-05      2.58550      55.0806 
3.34116e-05      1.66433      69.6051 
3.32614e-05     0.100000     -90.0000 
9.07615e-05     0.960208      54.3236 
6.25505e-05      6.63244      65.5989 
8.51507e-05     0.322490      82.8750 
3.27346e-05      1.27953      65.0372 
0.000202697     0.356090      38.1572 
3.26139e-05      1.54156      67.0942 
0.000605808      8.53625      65.0561 
3.23859e-05     0.557136      68.9625 
0.000403610      2.54448      69.2858 
0.000167536      1.09343      50.1944 
3.20792e-05      1.84619      67.0459 
0.000226776      2.90875      58.4957 
0.000165939      6.62420      65.7565 
3.18674e-05      2.80777      67.8197 
0.000199901      1.42618      67.7510 
0.000307879      2.00180      68.3049 
3.14510e-05     0.423792      70.7100 
0.000129905     0.101980     -78.6901 
0.000114057      2.94924      67.2606 
0.000113901      1.66973      71.1310 
0.000243138      1.48405      52.6668 
3.02665e-05      1.17337      60.3763 
5.87334e-05      2.98329      66.7005 
0.000279324     0.300666      86.1859 
2.99055e-05      1.61555      68.1986 
5.83118e-05      2.76319      67.8906 
-0.00198901     0.456070     -127.875 
9.51883e-05      1.27122      65.8545 
0.000179085      2.58070      54.4623 
0.000226403      1.85235      52.0165 
0.000125809     0.575847      69.6769 
2.85611e-05    0.0632456      108.435 
0.000194601      2.79084      62.7004 
0.000157973     0.729931      80.5377 
0.000747185      6.64244      65.8273 
0.000293192    0.0447214      116.565 
2.72196e-05      2.82631      67.9727 
0.000113976      1.63414      68.4590 
7.69535e-05      3.02576      65.8068 
0.000142643     0.600000      53.1301 
5.04199e-05     0.920869      55.6197 
7.18227e-05      1.40014      68.1986 
2.58668e-05      2.78173      68.0456 
7.24655e-05     0.721388      43.8767 
2.56621e-05      1.93546      66.8792 
9.60644e-05      1.66337      71.7829 
0.000565955      6.57647      61.8763 
6.28493e-05      1.25300      65.4804 
8.35066e-05      6.28051      64.7406 
9.35061e-05      2.91548      67.8337 
0.000194393      1.05622      71.2220 
2.48988e-05      2.06349      56.4640 
4.79674e-05      2.80029      68.1986 
4.80476e-05      2.91925      58.1611 
0.000128609     0.368782      40.6013 
0.000339927     0.746726      82.3039 
4.51930e-05      2.36947      68.1986 
5.82330e-05     0.417612      73.3008 
0.000120228     0.594643      70.3462 
0.000315165      6.27688      66.1302 
2.36742e-05      3.06052      65.2772 
0.000359589      2.24009      52.6185 
0.000315792      2.24722      69.1455 
2.34353e-05     0.843090      67.6938 
0.000362743      1.49626      52.0578 
8.72221e-05      3.09555      64.7595 
0.000163568      2.93626      58.3669 
6.25937e-05      1.41873      68.4986 
0.000127027     0.228035     -127.875 
8.14857e-05      2.94156      67.6199 
0.000156145     0.932309      54.6052 
0.000323955      2.56320      69.4440 
2.22695e-05      2.27306      68.8539 
0.000202528      8.84590      63.5508 
6.31886e-05      2.81887      68.3496 
0.000194211      1.10635      49.3987 
0.000100756      1.67631      72.6460 
5.54572e-05     0.392938      75.2564 
9.70258e-05     0.735935      42.7974 
0.000288357      2.59237      54.1026 
5.70253e-05      1.71965      56.8644 
5.59331e-05     0.824621      67.1663 
0.00100440     0.664831     -136.219 
0.000164479     0.178885      116.565 
0.000122840      1.39284      68.9625 
0.000297407      1.86473      51.5321 
7.55459e-05      3.10413      64.4256 
3.75464e-05     0.584123      51.9530 
5.59075e-05      2.79292      68.5795 
0.000144523      6.22614      62.4472 
5.62700e-05      8.87387      64.3590 
1.90863e-05      2.83746      68.4986 
6.56250e-05     0.572014      53.5308 
8.52123e-05      6.59412      61.9582 
5.33158e-05      1.98323      68.0913 
9.70277e-05      1.64158      67.8097 
0.000100426      2.93401      67.9810 
5.92715e-05    0.0721110      123.690 
0.000321466     0.417612      16.6992 
9.41325e-05      1.67045      73.3008 
0.000162583      1.03730      70.8664 
0.000156982      8.83695      63.3770 
0.000169655      8.89191      64.4148 
0.000175843      6.89771      62.1718 
0.000273467      2.94679      58.0358 
0.000104180      2.81155      68.7284 
9.58986e-05      3.11281      64.0935 
3.23064e-05      6.87069      62.2415 
0.000202960     0.750733      41.7603 
7.69270e-05      8.50849      64.8204 
0.000222437    0.0565685      135.000 
8.55095e-05      2.38805      68.3768 
7.75499e-05      6.21772      62.1985 
6.98823e-05      1.70294      56.4966 
0.000224332     0.244131     -124.992 
0.000296449      6.28713      66.3706 
5.87293e-05     0.798499      67.9321 
3.10476e-05      1.97585      68.6294 
6.04248e-05      8.53763      65.3561 
0.000105927      2.81780      62.5256 
2.95288e-05      6.22553      62.8587 
0.000126235      1.28577      74.6667 
0.000159393      6.73525      62.9784 
2.81947e-05     0.396989      40.9144 
0.000230885      2.39633      56.5752 
4.05276e-05     0.569210      71.5651 
0.000103596      2.92657      68.3440 
1.44735e-05      1.96865      69.1714 
0.000134668      1.41152      69.2539 
6.83879e-05      6.20941      61.9492 
0.000180181      3.12160      63.7633 
0.000207589      2.83019      68.8753 
5.41742e-05      2.26592      69.3256 
4.99761e-05     0.550273      70.9065 
0.000145102      2.13242      66.8014 
0.000197697      2.58194      69.5998 
2.71980e-05     0.744312      83.8298 
8.76493e-05      8.49039      64.7630 
4.64796e-05     0.556058      52.3058 
-0.000354724      2.82028      53.9428 
2.67275e-05      8.54751      65.5339 
5.10629e-05      1.96163      69.7174 
0.000205849      8.84593      63.2612 
3.70611e-05      1.49893      58.6429 
3.82462e-05      1.49305      50.9806 
9.51964e-05      1.66012      68.0704 
0.000161380      2.24018      69.6236 
0.000146695      6.22524      63.2703 
7.19092e-05     0.772528      68.7495 
0.000196534      2.25229      52.2143 
4.93215e-05     0.764199      83.9910 
1.29058e-05      1.68962      73.4956 
0.000121023      8.53925      65.6560 
0.000122604      6.20123      61.6992 
6.79738e-05      1.50864      51.4588 
0.000234562     0.233238     -120.964 
3.43432e-05      1.68404      74.1481 
4.43278e-05     0.438634      46.8476 
0.000203428    0.0848528      135.000 
0.000144967      6.90707      62.0251 
5.41794e-05      2.70304      58.3092 
0.000128073      1.03092      71.9166 
6.01811e-05     0.944034      53.6156 
9.42433e-05      2.65850      58.2231 
2.26900e-05      1.95479      70.2673 
7.79086e-05     0.280000      90.0000 
0.000137277     0.762365      85.4860 
-0.000536601     0.806226     -136.005 
4.15884e-05      8.88329      64.5311 
0.000152583      6.58592      61.7228 
2.11457e-05     0.436807      74.0546 
0.000102075      2.91925      68.7088 
0.000130677      8.47231      64.7053 
1.05660e-05      1.67523      56.6894 
1.05194e-05      1.93598      70.0675 
5.20646e-05      1.11946      48.6215 
1.98061e-05     0.765506      70.1448 
-0.000171983      2.80414      53.7022 
5.52211e-05      1.92925      70.6259 
6.20361e-05      7.02481      65.2590 
9.25463e-05     0.740000      71.0754 
0.000100393      1.50572      50.3893 
2.87071e-05      1.65855      56.3099 
3.62705e-05      2.85412      61.9984 
5.34034e-05     0.456070      74.7449 
0.000139389      3.13050      63.4349 
2.75421e-05     0.453431      48.5763 
9.63100e-06      1.70329      74.3318 
0.000100645      6.18362      61.6114 
1.80484e-05     0.172047      125.538 
7.98071e-05      8.90995      64.4703 
4.32177e-05      2.68604      58.0851 
4.09950e-05      8.53103      65.7784 
-0.000239220     0.200000      0.00000 
4.04242e-05      1.76647      74.2328 
7.29187e-05      2.57503      70.0169 
0.000101612      2.64151      57.9946 
8.73936e-05     0.141421     -98.1301 
0.000376287     0.664831     -133.781 
6.04904e-05      7.05135      65.1795 
8.46539e-05      1.89283      51.4347 
1.62724e-05      1.87723      51.0542 
3.31056e-05      2.92985      57.8288 
8.71081e-06      1.63083      56.5048 
9.14709e-05      6.27914      66.5378 
5.37395e-05     0.496790      49.8991 
5.27711e-05      1.61419      56.1130 
4.00262e-05      8.54110      65.9558 
6.06606e-05      2.61885      72.6721 
8.22216e-06      1.52643      58.3925 
9.61276e-05     0.260768     -122.471 
1.57136e-05     0.746726      69.6236 
-0.000162318      2.21070      61.3482 
2.94361e-05     0.972008      53.3659 
1.55572e-05     0.188680      122.005 
3.04712e-05      2.95743      57.7071 
2.95582e-05      1.65276      68.7136 
4.48744e-05      8.76584      64.0196 
5.86032e-05      2.91204      69.0755 
7.84827e-06      2.73057      58.1726 
2.18128e-05     0.260768      94.3987 
7.80793e-06      1.92271      71.1881 
5.76304e-05      6.93412      61.9567 
2.23476e-05     0.431741      76.6075 
4.33706e-05      1.50625      79.2869 
3.59420e-05      6.54171      59.9075 
1.45532e-05      2.82708      62.1659 
4.23094e-05      8.56645      66.9068 
7.31567e-06      2.77510      58.2572 
1.42978e-05      1.84098      72.9430 
7.23914e-06     0.481664      48.3665 
2.77100e-05      2.11405      66.5879 
1.40861e-05      2.84886      69.0202 
-2.74956e-05      6.55881      67.9715 
-2.06218e-05     0.200998      5.71059 
2.06462e-05     0.782304      85.6013 
1.39949e-05     0.196977      113.962 
2.08063e-05      6.19316      61.4486 
-1.38751e-05      6.58847      68.2632 
1.38740e-05      2.94054      57.4989 
1.37230e-05     0.451221      77.1957 
1.36463e-05      8.75710      64.1372 
1.34722e-05      2.80264      58.1246 
6.77386e-06      2.86754      69.1633 
6.74263e-06      8.45423      64.6474 
1.33877e-05      2.62458      57.7632 
