! Center RA: 22 32 36.40891,  Dec: +11 43 50.90394 (2000.0)
! Established model.
! Flux (Jy) Radius (mas)  Theta (deg)  Major FWHM (mas)  Axial ratio   Phi (deg) T \
! Freq (Hz)     SpecIndex
   2.12288      0.00000      0.00000 
 0.0476560    0.0200000     -90.0000 
 0.0139923    0.0282843     -45.0000 
0.00526069    0.0894427      116.565 
0.00252490    0.0824621      104.036 
0.00246037     0.116619      120.964 
 0.0197812     0.107703      111.801 
 0.0409668    0.0400000     -90.0000 
0.00451831     0.144222      123.690 
 0.0299840     0.134164      116.565 
 0.0367842    0.0600000     -90.0000 
0.00374313     0.172047      125.538 
0.00718519     0.100000      90.0000 
 0.0120235    0.0894427      63.4349 
0.00342225     0.200000      126.870 
0.00710922     0.240832      131.634 
 0.0141258    0.0632456     -108.435 
0.00515949     0.256125      128.660 
0.000783494     0.269072      131.987 
0.00682045     0.284253      129.289 
0.00415830     0.100000      53.1301 
0.000597556     0.156205      129.806 
0.00172947     0.300000      126.870 
0.00113259     0.169706      135.000 
0.00160400     0.288444      123.690 
0.000539608     0.184391      139.399 
0.00150920     0.200000      143.130 
0.00501787     0.305287      121.608 
0.00187613     0.113137      45.0000 
0.000936097     0.216333      146.310 
0.000885740     0.205913      150.945 
 0.0102109    0.0800000     -90.0000 
0.00242915     0.134164      26.5651 
0.00383103     0.223607      153.435 
0.00399875     0.332866      122.735 
0.00256802     0.152315      23.1986 
0.00157662     0.128062      38.6598 
0.00371630     0.349857      120.964 
0.00183998     0.388330      145.491 
0.00332022     0.449444      122.276 
0.00320671     0.241661      155.556 
0.00157401     0.340000      118.072 
0.00119892     0.477074      123.024 
0.00113532     0.568507      129.289 
0.00150057     0.609590      131.009 
0.000527313     0.144222      33.6901 
0.00421396     0.404969      147.095 
0.00139246     0.170880      20.5560 
0.000910988     0.439090      120.069 
0.00280814     0.676757      124.160 
0.000248380     0.116619      59.0362 
0.000662402     0.260000      157.380 
0.00268978     0.252982      161.565 
0.000676126     0.120000      90.0000 
0.000856811     0.581378      130.815 
0.000430098    0.0824621     -104.036 
0.000608995     0.184391      12.5288 
0.00283003     0.100000     -90.0000 
0.00129597     0.121655      80.5377 
0.00196000     0.594643      132.274 
0.00312462      1.98040      128.027 
0.00122097     0.200000      0.00000 
0.00358772     0.693397      123.232 
0.00253954      1.50013      132.839 
0.00232441     0.272029      162.897 
0.000938824     0.200998     -5.71059 
0.00142579     0.126491      71.5651 
0.000706287     0.608276      133.668 
0.000158837     0.286356      114.775 
0.000512784     0.693397      146.768 
0.00221335     0.220907     -5.19443 
0.00216355     0.682642      148.173 
0.000297650     0.100000     -126.870 
0.000147313      1.51486      132.325 
0.000145837     0.266833      167.005 
0.000831427      1.61443      131.987 
0.000802195     0.184391     -167.471 
0.00122782      1.97717      128.841 
0.000841600     0.278568      111.038 
0.000892420      1.60112      131.455 
0.00171931     0.278568      158.962 
0.000855870      1.48553      133.363 
0.000129138      2.04010      127.432 
0.000368055      1.96163      129.207 
0.000125142     0.220907     -174.806 
0.00323016      2.06814      127.535 
0.000123719     0.377359      147.995 
0.00102007      1.85267      135.437 
0.00102105     0.721110      123.690 
0.000241082      1.64268      132.039 
0.000121218     0.140000      90.0000 
0.00115955     0.203961     -168.690 
0.000987188      1.95898      130.030 
0.00154094     0.203961     -11.3099 
0.000574087      1.58795      130.914 
0.000553702      1.48809      143.746 
0.000412710     0.189737      18.4349 
0.000843368      1.47105      133.898 
0.000416731     0.141421      81.8699 
0.000815751     0.223607     -10.3048 
0.000638301      1.57493      130.365 
0.000416090     0.622896      132.397 
0.00145759     0.828010      127.147 
0.000306203      1.47201      143.286 
0.000202246      1.60312      130.446 
0.000293662     0.247386      104.036 
0.000979399      1.94371      130.409 
0.000738838     0.699714      149.036 
0.000395731      1.50000      143.130 
0.000286206      1.48499      134.454 
0.000697644      1.95673      130.855 
0.000739198     0.466476      120.964 
0.000665443      1.56205      129.806 
0.000333625      1.48405      142.667 
9.58252e-05     0.636553      133.727 
0.000136510      1.88096      135.431 
9.46624e-05      1.59022      129.898 
0.000272818      2.09619      127.635 
0.000535267     0.277849      149.744 
0.00171187      1.47078      135.000 
0.000339490      1.81041      135.895 
0.000336793     0.288444      146.310 
0.000337228     0.493964      121.759 
0.000472547      1.79611      135.451 
0.00148905     0.504777      123.690 
0.000161779     0.305287      148.392 
0.000160320      1.76782      135.458 
0.000609903     0.372022      143.746 
0.000303598     0.107703     -111.801 
0.000154457      1.74264      148.134 
0.000153665      1.92852      130.795 
0.000152030     0.268328      153.435 
0.000295487      1.75966      148.478 
0.000147474      1.75362      135.000 
0.000290773     0.752861      129.611 
0.000920514     0.189737     -161.565 
0.000651579      1.97190      130.475 
0.000142889     0.160000      90.0000 
0.000676883      1.77674      148.815 
0.000278325     0.400000      143.130 
0.000140699      1.62788      132.510 
0.000412727     0.768375      128.660 
0.000535672      1.46492      141.096 
0.000138545     0.584123      128.047 
0.000438739      1.88223      132.847 
0.000272363      2.04900      128.660 
0.000265862     0.180000      90.0000 
0.000133920      1.89842      131.583 
0.000960656      1.45671      134.444 
0.000510440     0.416173      144.782 
0.000132385     0.624820      129.806 
0.000628809     0.796492      128.884 
0.000258183      2.06465      128.313 
0.000127138     0.637809      131.186 
0.000249833      1.79388      149.146 
0.000698044      1.44941      140.599 
0.000745591     0.200000      90.0000 
0.000242819     0.638122      147.804 
0.000123915      2.05232      127.875 
0.000222603      1.86762      133.264 
0.000235466      2.40707      151.731 
0.000240998     0.651153      132.510 
0.000120667      1.78370      149.697 
0.000225936      1.45245      141.710 
0.000345516      2.39767      152.152 
0.000346811      1.80100      150.018 
0.00106749      1.44250      135.000 
0.00116542     0.812158      127.999 
0.000115642      1.85311      133.688 
0.000115311     0.648999      146.310 
0.000114260     0.181108      83.6598 
0.000886443     0.208806     -163.301 
0.000428475     0.432666      146.310 
0.000222338     0.679412      132.614 
0.000686261     0.665733      147.265 
0.000428543      1.80854      150.884 
0.000109750      1.78281      136.818 
0.000108748      1.86869      132.397 
0.000194161      2.26354      152.076 
0.000582197      1.96987      131.295 
0.000106954     0.664831      133.781 
0.000402405      2.42471      151.955 
0.000400741      1.43680      141.216 
0.000196865     0.141421     -98.1301 
0.000201909     0.678822      135.000 
0.000198632      1.79744      137.255 
0.000953417      6.09452      155.369 
0.000297689      1.79889      151.440 
0.000192913      2.25424      152.526 
0.000476987      6.11271      155.447 
0.000367404     0.456508      118.811 
0.000521077     0.449444      147.724 
0.000279069     0.693109      133.831 
9.54231e-05      1.80422      148.601 
0.000328480      1.95489      131.682 
0.000186129      1.81648      151.742 
9.42248e-05      1.43402      140.092 
9.37629e-05      2.44238      152.176 
9.29043e-05      2.37023      148.456 
9.28256e-05      1.81218      137.684 
0.000348940      1.42127      140.711 
0.000266544      6.26163      152.616 
0.000134242      1.78718      148.266 
9.01411e-05      2.36381      147.789 
0.000506017      1.80710      152.301 
8.90686e-05      2.47782      152.608 
0.00128989     0.220000      90.0000 
0.000319078      1.79878      138.155 
0.000171545      1.41873      139.574 
8.76582e-05     0.693109      136.169 
8.75840e-05      6.28859      152.539 
8.74204e-05      2.35771      147.119 
0.000360465      1.54674      130.280 
0.000134793      1.79778      147.724 
0.000105520      2.39140      150.433 
0.000538104     0.707107      135.000 
0.00158571     0.228035     -164.745 
0.000388639      1.54932      129.237 
8.40290e-05      6.32484      152.301 
0.000115059      1.94000      132.075 
0.000528325      1.81472      148.062 
0.000382546      2.35194      146.445 
0.000461124     0.474131      117.646 
8.34936e-05      2.26292      153.208 
0.000162506      2.53124      153.232 
8.25049e-05      6.27025      152.863 
0.000310176      6.35185      152.225 
0.000288389      2.38403      149.778 
8.00888e-05      6.26115      153.026 
0.000484440      2.08403      127.200 
0.000414821      1.42843      134.433 
0.000152842     0.200998     -84.2894 
0.000156652      1.40584      140.194 
0.000377638      1.96825      132.117 
0.000153537      6.27898      153.108 
0.000213827      2.24758      150.698 
0.000151986      1.82702      138.106 
7.69195e-05      2.54912      153.435 
0.000431861      1.79789      152.865 
0.000355338      1.95346      132.510 
0.000569058     0.816088      126.027 
0.000289652      6.06801      155.462 
0.000150169      1.40357      139.044 
0.000631589     0.466476      149.036 
0.000463212      1.44278      133.877 
7.51713e-05      5.97532      154.207 
7.49296e-05      6.30968      155.466 
0.000145842      2.56702      153.635 
0.000431113     0.297321      160.346 
0.000144818      6.28783      153.353 
0.000214481      5.95731      154.123 
0.000262816     0.722496      138.366 
0.000209001      6.32787      155.541 
0.000142747      1.39054      139.667 
0.000210116      6.37887      152.149 
0.000245908      2.35983      148.870 
7.17193e-05      1.81373      138.576 
0.000389004      1.53675      128.660 
0.000136092      2.23016      150.446 
0.000195835      2.34649      145.768 
0.000202893      6.30571      153.435 
0.000329534      1.37535      139.128 
6.94025e-05      2.58496      153.831 
0.000130074      1.53154      130.764 
6.89902e-05      1.95898      139.970 
0.000321458      1.81571      153.153 
0.000385745      5.93933      154.039 
6.80338e-05      1.77234      130.882 
0.000598171     0.465188      115.463 
0.000299685     0.203961      11.3099 
6.76913e-05      2.26318      154.341 
0.000318603      2.62968      153.825 
0.000105451      1.98716      139.899 
6.65568e-05      6.03887      152.162 
0.000240569     0.220907     -84.8056 
0.000424683     0.844038      126.327 
6.60069e-05      6.36119      152.065 
0.000191399      6.05974      155.634 
0.000308220      1.82538      147.529 
0.000188794      6.34609      155.616 
6.50126e-05     0.716101      144.090 
0.000125151      1.38852      138.504 
6.42428e-05      6.02120      152.073 
0.000126210      6.32361      153.516 
6.38389e-05     0.688186      125.538 
0.000243770      6.38824      151.991 
6.32333e-05      2.33529      146.174 
0.000120889      1.45726      133.332 
0.000122425      2.08038      127.972 
6.28350e-05      2.21278      150.191 
6.26873e-05      1.75932      130.389 
0.000362458     0.710211      147.653 
0.000104043      2.00250      140.268 
0.000443137      2.35321      148.201 
0.000225383      6.00353      151.984 
0.000169719     0.721388      136.123 
6.08615e-05      1.96703      132.940 
0.000223449     0.721110      146.310 
0.000238831      2.01792      140.631 
0.000232650      6.34151      153.597 
0.000118798      1.74642      129.890 
0.000176396      2.82708      152.166 
5.96000e-05      6.07796      155.712 
0.000761831      1.80677      153.719 
0.000117430      1.36235      139.764 
0.000229122      5.91260      154.128 
0.000330965      6.36431      155.690 
5.87432e-05      2.25460      154.799 
0.000281460      5.81653      151.673 
0.000221403      2.64764      154.016 
5.77696e-05      1.98172      132.546 
0.000418296      2.03657      141.780 
5.70368e-05      6.09620      155.789 
0.000105013      1.37244      136.771 
5.67957e-05      6.41529      151.917 
0.000106851      2.20291      150.642 
5.65500e-05      1.73367      129.382 
5.65548e-05      1.36015      143.973 
0.000462606      3.45601      163.872 
0.000162053      6.86361      151.643 
0.000430747      2.03342      140.988 
0.000284733      1.52801      127.020 
0.000101290      1.86387      146.821 
0.000158220      2.35780      145.366 
0.000161862      2.83648      151.809 
0.00106699      4.27355      165.639 
0.000109561      1.34848      144.660 
5.54047e-05      1.98313      131.730 
0.000108623     0.682642      121.827 
0.000214128      1.97960      161.748 
0.000108217      6.39766      151.833 
0.000107604      1.38708      137.337 
0.000690630      6.87314      151.496 
0.000107137      6.11444      155.866 
0.000208941      1.74917      128.967 
5.47085e-05      6.35943      153.677 
0.000263520     0.832346      125.218 
5.42738e-05      1.35351      145.840 
0.000256934      5.89461      154.044 
5.37442e-05      6.26386      149.915 
0.000102328      1.98977      129.289 
0.000155141      1.84716      146.482 
0.000104730      2.69236      154.006 
5.34840e-05      1.37361      137.951 
0.000149301      2.24615      155.260 
0.000105018      6.36855      153.918 
0.000293517      2.23517      136.450 
0.000155991      1.35912      147.011 
0.000330209      6.76287      154.420 
0.000103029      2.10000      126.870 
0.000151684      8.88585      150.319 
0.000101954      5.75423      151.564 
0.000471298      1.54467      131.325 
0.000191011      2.34691      147.529 
9.99881e-05      5.79893      151.579 
5.12721e-05      6.38003      151.748 
5.10445e-05     0.672309      120.379 
5.10821e-05      1.54013      127.614 
0.000163690      1.99279      128.480 
0.000947413      1.97342      162.300 
0.000142298      1.51605      143.584 
0.000192543      2.85412      151.998 
9.90352e-05      6.13270      155.943 
0.000445234      1.38622      136.169 
5.02252e-05      6.19926      150.209 
0.000191541     0.735935      137.203 
5.00865e-05      1.72534      135.000 
9.89662e-05      1.34833      147.724 
0.000768471      4.94813      163.323 
0.000182640      2.73708      153.997 
0.000229828      6.38652      153.997 
0.000579806     0.483322      114.444 
0.000493741     0.848764      124.439 
9.65330e-05      6.38254      155.764 
0.000642853      2.89689      162.316 
4.90633e-05      6.36242      151.663 
0.000186497      2.09246      125.665 
0.000140095      2.60292      154.026 
8.88091e-05      6.31854      149.783 
0.000268785      1.73666      128.454 
9.39856e-05      3.94614      155.123 
0.000795061      3.46976      164.281 
4.81541e-05     0.689638      119.539 
0.000187174      1.32740      149.184 
0.000175808      5.95883      151.973 
0.000168161     0.316228      161.565 
4.76399e-05      5.88588      154.219 
9.34327e-05      6.15097      156.019 
4.74724e-05      6.17197      150.278 
0.000644651      7.85155      144.853 
0.000182379      3.33143      158.518 
0.000136366     0.680000      118.072 
0.000214116      1.34402      143.471 
9.15817e-05      5.73665      151.469 
0.000180232      2.24971      136.801 
4.66754e-05      6.32724      151.491 
0.000178895      5.86788      154.134 
0.000507449      8.90324      150.383 
9.11484e-05      1.54842      144.462 
0.000248505      6.75426      154.573 
4.54025e-05      6.27458      151.229 
8.68785e-05      6.40078      155.838 
0.000129918      6.63063      151.734 
8.68348e-05      3.76431      143.861 
0.000231159      2.25610      155.934 
4.45472e-05      6.12457      156.113 
0.000214360      1.31727      149.931 
4.44883e-05      2.02089      141.429 
0.000171842      2.87179      152.186 
8.60895e-05      4.28789      146.606 
0.000149134     0.223607     -79.6952 
8.63485e-05      6.17948      150.531 
4.37942e-05      6.41903      155.911 
0.000193597      3.92800      155.001 
8.51197e-05     0.749667      136.081 
8.25377e-05      1.71126      134.526 
0.000164165      2.55820      154.036 
4.31642e-05      5.98588      151.894 
4.30663e-05      6.16925      156.094 
0.000487842      2.09724      124.902 
8.44362e-05      3.31282      158.391 
0.000157991      6.40450      154.075 
0.000262629      1.53219      125.972 
0.000171286      2.37428      145.641 
8.29331e-05     0.670820      116.565 
4.23554e-05      5.76378      151.390 
0.000313696      9.41550      148.640 
8.32167e-05      6.14287      156.189 
0.000197939      3.35863      162.320 
0.000192104      1.86955      145.460 
0.000195652      3.50228      158.563 
0.000558547      2.26345      136.432 
0.000158729      5.84116      154.225 
4.15579e-05     0.483735      150.255 
8.08660e-05      5.94118      151.882 
7.94193e-05      6.22206      150.963 
7.97185e-05      1.77020      147.926 
0.000213294      1.55795      131.878 
7.95452e-05      6.11882      154.440 
4.07231e-05     0.764199      137.121 
4.05566e-05      5.71909      151.374 
0.00117178     0.240000      90.0000 
0.00108101      1.30736      150.690 
7.95092e-05      6.46579      156.289 
0.000148698      10.1781      148.090 
7.97683e-05      2.88950      152.371 
0.000112118      3.29424      158.263 
0.000446955      1.72430      127.933 
3.98971e-05      1.53219      144.028 
3.98457e-05     0.834506      135.971 
0.000151251      6.16117      156.264 
0.000278297      9.58008      146.841 
8.94986e-05      6.24743      151.302 
0.000244594      1.37186      135.591 
0.000188921     0.662118      115.017 
3.92128e-05      6.64825      151.816 
3.91249e-05      2.71035      154.191 
0.000219701     0.865332      123.690 
0.000234512      4.27691      146.830 
0.000149985      2.90723      152.554 
0.000252249     0.848999      136.909 
7.52478e-05      5.74623      151.294 
0.000258215      2.05232      142.125 
0.000224047      9.59104      146.741 
0.000565827      10.2057      148.054 
0.000178490      1.34015      142.275 
0.000201298     0.243310     -170.538 
0.000110092     0.220000      0.00000 
7.50962e-05      6.48410      156.361 
0.000366046      6.67533      151.746 
0.000142446      6.78498      149.731 
0.000162796      3.74817      143.680 
3.74369e-05      1.58114      145.305 
3.73320e-05      6.15493      154.601 
3.72850e-05      2.72837      154.374 
0.000137172      3.27567      158.134 
0.000364663      3.52091      158.682 
0.000341017      9.28177      151.281 
0.000664524      1.54311      132.374 
0.000139132      5.82316      154.139 
0.000102292      8.31048      145.392 
7.22756e-05      2.57620      154.231 
0.000590342      4.25417      165.572 
0.000170094      4.59848      160.698 
7.00773e-05      1.59762      145.713 
3.59722e-05      6.16458      150.025 
0.000337996      3.33958      162.216 
0.000130742      2.34009      161.565 
0.000103517      6.42249      154.153 
0.000103151      1.81604      154.564 
3.57386e-05      5.97649      152.063 
7.08468e-05      4.95391      163.101 
0.000463983      5.90623      157.082 
0.000138695      2.92500      152.734 
7.01743e-05      6.50243      156.431 
9.90631e-05      6.73620      154.500 
3.52662e-05      5.76590      144.601 
3.51439e-05      6.17301      154.680 
0.000231832     0.653911      113.429 
0.000123460      5.72870      151.198 
0.000111555      9.59683      146.906 
0.000176128      6.22990      151.213 
0.000213490      3.91203      163.974 
9.88277e-05      2.74642      154.555 
0.000287972      4.61736      160.780 
0.000293250     0.220907      5.19443 
3.43700e-05      3.25712      158.003 
0.000348913      4.97305      163.168 
6.80694e-05      1.35794      136.193 
6.70200e-05      5.99416      152.152 
3.40276e-05      2.54951      154.440 
6.67658e-05      6.17948      156.339 
9.84197e-05      1.86590      120.964 
9.81843e-05      5.81446      154.316 
3.38003e-05     0.335261      162.646 
9.76184e-05     0.882043      122.969 
0.000346067      1.88605      145.804 
0.000467399      10.9937      152.596 
3.31685e-05      6.52077      156.501 
0.000329541     0.877268      136.848 
0.000218282      2.95195      152.567 
3.28598e-05      6.72761      154.654 
6.34171e-05      1.64754      146.889 
3.26521e-05     0.672309      149.621 
3.25090e-05      2.56757      154.633 
3.24086e-05      6.19109      154.759 
0.000200444      6.79509      149.586 
6.33317e-05      2.37697      149.119 
3.22610e-05      1.39284      147.907 
0.000272260      1.96469      128.387 
3.21442e-05      6.70955      154.581 
0.000148451      1.33686      141.072 
3.20026e-05      6.51282      156.663 
6.21645e-05      3.90144      155.143 
0.000255022      2.58565      154.822 
0.000408437     0.689638      150.461 
5.66113e-05      1.66433      147.265 
9.08131e-05      6.44050      154.231 
0.000150312      1.99249      162.474 
6.07764e-05      6.13482      156.360 
6.14198e-05      6.01186      152.241 
0.000113754      1.83412      154.832 
5.96381e-05     0.310483      165.069 
0.000739750      3.39912      173.920 
0.000118951     0.871321      121.866 
0.000250882      1.85569      120.434 
0.000117905      6.53119      156.732 
8.64980e-05      2.27438      156.140 
0.000172914     0.672309      112.751 
0.000272393      6.21237      151.125 
0.000283337      1.51605      126.416 
0.000113964      2.04900      141.340 
3.05107e-05      6.68290      154.662 
3.03558e-05      2.11367      124.592 
5.28228e-05      1.52971      131.820 
0.000169969      5.80517      154.053 
3.03354e-05      1.34358      135.603 
4.56085e-05      2.59422      154.423 
0.000115180      10.9759      152.548 
0.000153950      7.98291      150.095 
0.000159706      3.24617      157.543 
3.00095e-05      4.51575      161.405 
0.000166584      2.87179      162.575 
0.000109816      6.20919      154.838 
2.96506e-05      2.96971      152.745 
0.000248483      1.32439      141.746 
8.64861e-05      1.35764      135.000 
2.95056e-05      2.10874      125.348 
0.000351123     0.247386     -75.9638 
0.000136926      7.20680      149.663 
0.000112407      4.53471      161.485 
0.000240725      2.24900      136.081 
0.000109285      8.28266      145.427 
0.000112416      1.68119      147.633 
8.42215e-05      6.88270      151.350 
0.000162570      3.52823      158.380 
0.000388994      9.93903      152.301 
8.18087e-05      6.63819      154.670 
8.50729e-05      10.0020      154.665 
0.000202412      2.12509      125.036 
8.29852e-05      4.96568      162.660 
8.46242e-05      2.98751      152.920 
2.85271e-05      2.73788      154.933 
2.84550e-05      5.93245      156.979 
0.000433503     0.646220      111.801 
5.48675e-05      6.04728      152.418 
5.54646e-05      4.96729      163.389 
0.000134708     0.898888      122.276 
8.12793e-05      4.62398      160.546 
0.000119791      2.36305      146.041 
8.22124e-05      2.01157      162.646 
0.000346378     0.863713      137.816 
2.76158e-05      6.02717      156.327 
0.000152705      6.86516      151.270 
5.45932e-05      1.34358      134.397 
6.57142e-05      8.29711      149.107 
7.74154e-05      2.32112      161.409 
7.70088e-05     0.329848      165.964 
4.97403e-05      4.55368      161.565 
8.00801e-05      3.06809      154.103 
8.04942e-05      10.0467      154.659 
0.000125178      6.54957      156.801 
0.000364568      3.46439      164.600 
5.27735e-05      2.89883      152.021 
0.000130190      8.34595      154.295 
0.000121626      3.87489      155.287 
2.66914e-05      1.67451      150.680 
2.66027e-05      1.88096      144.958 
0.000175583      7.22706      153.719 
0.000134769      4.24924      146.908 
0.000125153      4.98646      163.455 
3.86776e-05      2.13054      129.668 
5.12119e-05      3.73208      143.499 
2.63300e-05      2.91650      152.205 
5.14999e-05      2.60377      155.010 
7.62401e-05      2.03066      162.814 
2.61295e-05      1.40014      134.421 
0.000303588      4.52840      161.725 
2.60522e-05      2.14336      130.079 
0.000250105      6.00083      156.425 
4.94606e-05      4.56535      146.797 
0.000148880      10.0648      154.708 
2.58326e-05      1.68440      150.086 
0.000223365     0.528394      150.524 
7.36370e-05      5.71118      151.101 
2.56072e-05      1.31529      134.384 
0.000287395     0.891964      137.726 
7.06018e-05      5.79600      153.789 
0.000142803      4.60513      160.463 
0.000265220      1.95346      169.380 
2.53762e-05      8.32793      154.235 
7.46744e-05     0.888369      121.185 
0.000157786      4.97168      162.440 
0.000248401      1.84564      119.899 
7.17053e-05      5.89847      157.261 
0.000117841      3.08610      154.265 
4.88128e-05      6.06501      152.505 
0.000271620      3.32054      162.111 
0.000120361      2.88118      151.834 
4.94187e-05      1.32966      133.781 
2.47780e-05      1.65711      150.341 
2.47351e-05      4.39841      163.625 
0.000228485      2.85272      162.454 
0.000218367      2.28473      156.801 
2.46823e-05      5.78719      153.966 
0.000154708      10.7716      150.770 
4.67943e-05      5.92466      157.157 
0.000222163      1.29769      151.460 
0.000117379      6.70242      151.676 
5.16193e-05      2.13335      128.911 
4.28821e-05      2.77417      155.283 
6.67615e-05     0.475395      112.249 
0.000151176      1.71207      127.405 
0.000101245      8.30405      149.297 
0.000425968      8.31925      154.359 
4.65222e-05      3.54683      158.499 
6.75076e-05      1.69198      151.011 
0.000166451      6.77785      149.500 
7.00874e-05      2.04978      162.979 
0.000120170      6.18159      154.513 
0.000137609     0.915860      121.608 
2.39704e-05      1.65855      146.310 
0.000107437      7.21692      149.526 
2.38621e-05      2.15629      130.486 
0.000342639      3.72022      143.746 
2.38776e-05      4.40409      163.376 
0.000123569      1.41450      133.854 
2.38616e-05      9.25462      151.330 
2.38078e-05     0.243310     -9.46232 
0.000109535      1.32136      140.528 
0.000212856      8.26620      145.349 
0.000117178      3.38733      158.890 
4.59253e-05      5.76975      154.323 
8.44928e-05      6.19487      151.035 
6.69021e-05      6.57541      154.604 
0.000276970      10.0829      154.757 
0.000465761      5.24416      160.390 
2.34104e-05      1.67523      146.689 
2.33928e-05      3.89281      163.893 
8.56220e-05      2.79235      155.454 
4.22368e-05      6.15315      156.435 
4.55256e-05      1.28763      133.112 
0.000276642      2.86356      151.645 
0.000271714      7.83520      144.768 
4.42934e-05     0.501597      113.499 
2.31895e-05      2.26274      135.000 
0.000302253      7.21823      153.861 
0.000155429      9.23708      151.271 
4.51993e-05      1.87211      161.952 
0.000123844      3.10413      154.426 
0.000201965      1.37201      149.323 
0.000239579      4.98080      163.675 
0.000103849      6.08276      152.592 
6.48075e-05      6.78091      154.493 
6.50346e-05      1.85224      155.095 
0.000544135      3.40129      173.585 
0.000149877      4.38493      163.301 
0.000248028      2.12085      128.491 
4.43069e-05      10.2894      154.929 
6.41259e-05      6.59421      156.779 
9.78027e-05      2.32757      160.942 
2.23500e-05      1.64195      145.923 
6.17843e-05      3.86807      164.095 
2.22696e-05      11.0207      152.551 
6.43258e-05      4.13401      147.848 
4.36341e-05      3.40599      159.011 
4.41007e-05      1.38232      148.610 
4.19482e-05      4.58210      146.934 
4.14256e-05      1.72800      127.003 
2.19940e-05      1.62542      145.528 
6.36225e-05      2.24900      133.919 
8.21204e-05     0.305941      168.690 
0.000313400      6.68482      151.595 
2.18521e-05      1.31590      133.152 
0.000179954      11.0384      152.599 
8.09527e-05      5.69368      151.004 
4.20786e-05      8.15696      149.663 
4.30417e-05      3.53565      158.078 
0.000199509     0.260000      90.0000 
0.000103273      4.54739      161.804 
0.000138161      2.06891      163.142 
0.000138221      1.89737      145.305 
2.15531e-05      6.22729      154.916 
9.51471e-05      5.91692      157.335 
8.38003e-05     0.932952      120.964 
2.14713e-05      4.15047      159.993 
0.000142318      10.3075      154.976 
2.14164e-05      1.69198      147.061 
2.13499e-05      2.18248      131.285 
6.05532e-05      1.85311      161.761 
0.000400049      3.98301      166.941 
5.94329e-05      1.70950      151.336 
2.11544e-05      6.15019      151.018 
2.11633e-05      4.59304      146.725 
0.000292376      3.84838      155.433 
0.000149693      4.58628      160.380 
0.000138179      5.78695      153.524 
4.14435e-05      3.42117      173.623 
9.76484e-05      3.42468      159.131 
2.08712e-05      6.56795      156.870 
0.000265823      2.22144      136.824 
0.000129017      1.71965      146.864 
6.11105e-05      4.06846      159.873 
6.08051e-05      1.27405      132.455 
7.56512e-05      1.39943      149.036 
0.000276412      5.71216      158.646 
4.10063e-05      3.54316      157.778 
5.91868e-05      2.37966      146.310 
0.000157251     0.639062      110.136 
0.000109189      1.50426      125.803 
0.000446708      9.98375      152.306 
7.33215e-05      8.92063      150.446 
0.000254981      2.20871      125.417 
5.75388e-05     0.247386     -14.0362 
3.82955e-05      3.12218      154.584 
0.000247855      5.25090      160.185 
0.000204476      1.70294      146.497 
0.000150607     0.960417      121.373 
5.19681e-05      5.74961      144.485 
2.00275e-05      3.40035      166.045 
0.000129648      3.52466      157.655 
1.98942e-05      1.94833      121.569 
9.17321e-05      2.26292      134.284 
7.70285e-05      1.28825      152.241 
0.000226223      1.83576      119.358 
1.97069e-05      6.80758      154.414 
0.000135995      4.90567      144.625 
3.77178e-05      7.93826      150.076 
0.000174116      6.80171      156.978 
1.95660e-05      5.01825      148.527 
0.000161942      6.04549      156.403 
8.82619e-05      4.11709      147.700 
7.40052e-05      6.19965      154.592 
5.57782e-05      8.13971      149.592 
7.49875e-05      4.04969      159.775 
1.92511e-05      6.61259      156.847 
8.84717e-05      4.99075      162.509 
7.32527e-05      1.26063      131.785 
9.85061e-05      6.10052      152.679 
7.28894e-05      3.53734      136.833 
3.64137e-05      2.37403      150.195 
0.000219237      1.30874      141.203 
1.90215e-05      3.21702      156.942 
1.89544e-05      10.1638      154.847 
5.47783e-05      3.39559      166.373 
1.88485e-05      6.79897      154.566 
8.98011e-05      10.3522      154.970 
0.000173441      10.7542      150.718 
0.000198675      5.03532      148.646 
1.86703e-05      2.08087      125.218 
0.000112498     0.860930      120.735 
1.86452e-05      2.27693      135.356 
7.04356e-05     0.613514      109.026 
1.85081e-05      1.98977      140.711 
1.84586e-05      10.6894      146.756 
0.000169195     0.493964      111.371 
8.64789e-05      3.44337      159.249 
3.63395e-05      1.26127      152.622 
0.000111648      5.15302      152.241 
3.55548e-05      6.82563      154.486 
3.24798e-05      3.07688      153.768 
0.000121321      1.72708      151.654 
1.82716e-05     0.664831      111.161 
0.000172835      10.1819      154.895 
3.55620e-05      6.51847      157.448 
-0.000277108     0.520384      2.20260 
0.000182628      1.96957      170.059 
8.42757e-05      1.71604      126.469 
6.73224e-05      2.39633      146.575 
1.79909e-05     0.690797      112.109 
0.000121710      1.90263      146.143 
3.53593e-05      1.97190      139.525 
0.000165441      11.0562      152.647 
3.53740e-05      1.93794      121.065 
6.50742e-05      2.31534      160.313 
0.000134913     0.716938      112.989 
0.000184217      11.2524      150.154 
3.50097e-05      3.50907      136.848 
9.76489e-05      6.78802      149.355 
6.63130e-05      5.67620      150.906 
1.76979e-05      6.59348      154.679 
3.16620e-05      4.57633      146.588 
0.000327152      7.20944      154.004 
0.000222156      2.08806      163.301 
0.000120680     0.223607      10.3048 
0.000100334      1.25220      153.435 
8.24042e-05      4.00525      159.846 
6.50484e-05     0.234094     -19.9831 
5.05750e-05      3.14025      154.741 
0.000138504      8.11234      149.642 
3.31849e-05      1.84054      160.974 
0.000219430      6.36974      158.833 
0.000100663      4.61185      160.229 
0.000194891      5.00000      163.740 
1.70754e-05      1.74471      151.966 
7.36591e-05      5.90925      157.514 
1.70015e-05      1.97434      140.343 
4.61287e-05     0.987927      121.759 
1.69413e-05      6.35109      158.768 
7.95171e-05      6.81704      154.638 
1.68845e-05      5.66763      158.687 
6.54640e-05      3.50617      157.531 
0.000118486      3.39093      166.701 
7.64922e-05      10.4355      145.305 
7.93556e-05      1.24740      131.100 
0.000131661      2.83365      162.332 
0.000120035      4.91728      144.435 
0.000313374      10.3704      155.016 
0.000216848     0.607289      107.241 
3.26631e-05      6.53694      157.515 
8.72685e-05      5.57412      151.964 
0.000116922      3.09483      153.932 
8.65212e-05      1.42899      133.299 
-0.000175127     0.521536      4.39871 
0.000120302      3.49451      136.623 
5.98157e-05      1.86473      141.532 
1.64020e-05      1.96540      121.264 
0.000129719      2.84598      151.454 
1.63418e-05      1.95673      139.145 
1.62907e-05     0.588218      107.819 
2.95221e-05      1.74734      146.674 
0.000173121     0.977548      120.763 
3.14256e-05      9.90038      148.044 
5.67349e-05     0.823650      119.055 
1.60952e-05      7.19969      149.446 
3.11046e-05      10.7004      146.666 
4.36496e-05      7.92093      150.004 
1.60862e-05      3.52278      136.610 
0.000125626      2.27693      134.644 
0.000155834      2.29268      156.342 
4.53693e-05     0.208806      16.6992 
9.99349e-05      5.62310      158.728 
0.000115320     0.878635      138.691 
1.57327e-05      1.71919      150.751 
1.57040e-05     0.751532      115.201 
0.000123820      3.98648      159.747 
1.56830e-05     0.644981      150.255 
3.10928e-05      2.23607      137.175 
2.85176e-05      1.92666      138.366 
9.45475e-05      1.68630      146.121 
8.48318e-05      3.46208      159.366 
5.94731e-05      6.16354      154.433 
3.08585e-05      10.7603      153.864 
5.59626e-05      2.35669      149.954 
4.56357e-05      1.24338      154.259 
1.54960e-05      3.51386      157.230 
8.37350e-05     0.228035     -74.7449 
0.000138718      6.71193      151.526 
4.21309e-05      1.79889      118.560 
6.85103e-05      2.87089      148.968 
1.53369e-05      4.23835      147.135 
0.000153062      6.84634      156.955 
1.52817e-05      6.10917      152.932 
4.42679e-05      4.10643      147.935 
1.52513e-05      3.41760      159.444 
2.98333e-05      6.52932      157.677 
7.08592e-05      4.50941      161.645 
4.26577e-05      5.75670      158.605 
7.11555e-05      1.94165      138.759 
5.63441e-05      5.00983      162.578 
0.000124443      3.49543      157.103 
6.94559e-05      1.49265      125.181 
1.51109e-05      1.95510      120.763 
9.48760e-05      6.77082      149.268 
0.000178951      10.7423      153.817 
0.000149344      2.20780      137.203 
1.49944e-05      5.36123      155.538 
0.000150755      11.0739      152.694 
4.28098e-05      2.41305      146.837 
0.000135754      1.80854      119.116 
1.48124e-05      3.15835      154.895 
5.47116e-05      1.84716      160.388 
1.47965e-05      3.30775      161.675 
6.90750e-05      1.70423      125.929 
1.47392e-05      9.89450      154.626 
4.19686e-05      5.78263      158.493 
9.47543e-05      1.23434      130.400 
1.46746e-05      4.25920      165.311 
5.42484e-05     0.223607     -26.5651 
9.50361e-05      1.26143      154.654 
2.85616e-05      9.23101      154.046 
6.79787e-05      6.83511      154.710 
2.78516e-05      3.22273      155.821 
5.44819e-05      5.65873      150.808 
2.76448e-05      2.61228      154.612 
1.43743e-05      9.80490      152.285 
-9.43176e-05      10.6444      142.635 
1.43621e-05     0.743236      113.806 
2.79637e-05      1.94494      120.256 
6.71900e-05      5.38773      155.433 
6.68812e-05      9.56335      146.775 
2.73706e-05      1.86815      142.394 
5.33269e-05      9.91736      148.105 
4.04246e-05      4.39072      163.051 
7.95744e-05      9.84979      154.632 
2.64310e-05      6.83801      151.336 
2.67642e-05      9.19239      151.260 
4.05944e-05      2.33418      160.478 
4.00976e-05      8.66021      150.534 
7.95664e-05     0.906863      138.576 
1.38803e-05      6.12699      153.017 
1.38466e-05      3.84884      164.014 
3.95390e-05      6.54782      157.744 
3.96850e-05      10.6837      146.607 
3.95867e-05      4.08950      147.787 
6.45154e-05      10.2000      154.942 
2.69088e-05      6.14550      154.352 
6.52588e-05      3.48000      136.397 
3.91354e-05      9.20428      154.103 
3.91952e-05      4.50315      161.887 
-3.86362e-05      10.6285      142.569 
-3.95520e-05      8.31233      140.565 
2.57941e-05      1.27012      153.838 
2.60318e-05      7.81887      144.684 
2.60088e-05      2.42981      147.095 
2.60665e-05      3.40359      173.251 
2.55005e-05      10.5468      145.195 
2.56830e-05      1.95233      119.454 
1.30031e-05      4.27855      165.379 
1.29592e-05      3.30151      162.004 
1.29448e-05      4.22156      146.988 
2.53650e-05      1.95233      127.926 
2.55277e-05      10.6084      152.855 
2.54390e-05      5.82718      158.454 
2.51925e-05      8.09508      149.570 
1.28447e-05      5.70544      144.416 
1.27546e-05      6.12748      154.271 
-2.52516e-05      8.29964      140.672 
1.27074e-05      2.71536      159.296 
2.52294e-05      3.42584      172.958 
2.50894e-05      5.01920      163.804 
2.49943e-05     0.228035      15.2551 
2.49094e-05      6.11830      152.765 
1.26006e-05      3.43634      159.561 
5.95623e-05      1.89694      137.564 
1.24672e-05      3.11281      154.093 
2.47724e-05     0.709366      111.501 
1.24496e-05      10.7244      153.769 
1.24522e-05      2.72712      159.837 
1.23861e-05      3.47701      156.975 
1.24000e-05      4.30153      133.116 
1.23644e-05      8.24975      145.270 
1.23325e-05      6.87258      156.867 
1.23063e-05      6.09554      159.246 
1.22995e-05      3.19462      155.200 
1.23002e-05      5.02892      162.646 
0.000279600      1.83674      144.752 
0.000134416      6.28834      154.168 
6.65412e-05      1.82044      144.389 
0.000129434      1.83216      143.881 
0.000192293      6.26163      154.253 
0.000387084     0.368782     -167.471 
6.28495e-05      1.80000      143.130 
6.15309e-05      6.25297      154.418 
6.10238e-05      1.69623      142.184 
0.000232869      3.54835      162.280 
6.00457e-05      6.27965      154.333 
6.00720e-05      1.66817      142.306 
5.97252e-05      3.52931      162.181 
5.93924e-05      2.32723      151.232 
0.000116713      1.62432      142.001 
5.85432e-05      6.54743      153.905 
5.77744e-05      6.05818      155.212 
5.75663e-05      2.43417      151.540 
5.69675e-05      1.56818      142.253 
5.69113e-05      6.71720      153.664 
0.000251780     0.580000      180.000 
5.62280e-05      5.99683      155.572 
5.61392e-05      2.38948      151.504 
5.60482e-05      1.44402      143.448 
5.54859e-05      6.78873      153.586 
0.000106806     0.252982     -108.435 
5.49773e-05      1.38809      143.791 
5.49652e-05      5.95399      156.018 
5.48607e-05      2.47887      151.574 
5.45406e-05      6.83345      153.585 
5.41465e-05      5.94589      156.194 
5.36501e-05      2.41661      151.314 
5.35347e-05      3.56741      162.378 
0.000106368      10.7427      154.055 
5.36314e-05      1.74642      140.110 
0.000106005      6.90498      153.509 
5.29656e-05      5.91151      156.471 
5.29704e-05      1.26491      145.305 
0.000101658      2.44377      151.128 
5.21963e-05      5.90356      156.648 
5.22919e-05      1.27640      144.567 
0.000301174      10.7607      154.102 
5.20178e-05      1.82877      138.991 
5.19948e-05      3.53548      161.873 
0.000101243      6.94971      153.509 
5.12195e-05      2.52357      151.607 
5.13964e-05      4.16778      164.697 
5.12686e-05      1.15378      146.310 
5.08641e-05      5.86160      157.109 
5.08545e-05      1.85699      138.930 
9.90848e-05      6.96761      153.582 
5.01803e-05      1.16499      145.491 
5.02929e-05      2.50599      151.390 
5.03343e-05      4.18708      164.769 
4.99822e-05      5.82003      157.577 
0.000870419     0.300666     -86.1859 
9.81874e-05      1.85526      138.059 
4.96198e-05      3.44703      161.039 
9.73615e-05      1.10941      146.023 
9.74256e-05      4.25022      164.721 
4.88099e-05      5.77141      158.235 
0.000540136      3.35935      173.848 
4.86107e-05      1.13719      145.751 
4.83291e-05      2.47095      150.945 
4.76210e-05      4.26952      164.792 
4.76419e-05      2.48845      151.169 
4.76361e-05      10.7787      154.148 
4.74571e-05      5.76403      158.420 
4.75730e-05      1.86869      137.603 
0.000198943      1.24788      173.558 
4.71465e-05      6.98553      153.655 
0.000310196      3.33946      173.811 
4.70118e-05      1.09289      145.437 
4.67910e-05      10.4303      154.319 
4.68476e-05      3.41585      160.504 
4.65350e-05      4.31337      164.675 
4.62606e-05      10.8327      154.287 
4.62869e-05      1.12071      145.176 
4.62205e-05      2.45349      150.719 
4.62196e-05      7.05705      153.580 
4.61441e-05      5.79741      158.125 
4.60716e-05      1.88223      137.153 
0.000132001      5.18046      162.474 
4.57850e-05      3.42940      159.874 
4.56663e-05      1.16017      144.118 
4.57100e-05      4.35725      164.560 
4.56321e-05      10.4216      154.418 
9.00208e-05      1.89589      136.710 
0.000640995      10.9048      154.469 
4.49937e-05      6.48521      154.225 
4.50343e-05      2.51563      150.990 
4.49305e-05      5.71640      159.092 
0.000131650      1.08812      143.973 
8.71387e-05      4.35196      164.814 
8.78006e-05      10.4130      154.518 
4.44242e-05      7.10177      153.579 
8.54145e-05      3.37313      159.523 
4.42117e-05      1.03228      144.462 
4.41174e-05      1.92416      136.685 
4.38987e-05      4.33267      164.745 
4.36874e-05      2.55069      151.425 
4.38150e-05      5.77533      158.678 
4.34035e-05      1.88138      136.292 
4.33983e-05      3.41063      159.759 
4.31909e-05      6.60136      154.134 
4.30095e-05      4.37653      164.630 
4.29505e-05      2.43606      150.489 
8.42054e-05      5.73508      159.163 
4.25985e-05      7.11969      153.651 
8.46841e-05      1.89526      135.855 
4.26139e-05     0.960208      144.324 
4.23739e-05      10.4044      154.617 
4.21446e-05      3.35440      159.404 
4.21127e-05      1.00439      144.728 
4.18009e-05      2.49816      150.767 
4.17219e-05      1.82483      170.538 
4.15572e-05      4.32745      165.000 
4.13418e-05      1.14403      143.531 
4.12723e-05      6.52993      154.220 
8.16426e-05      10.3958      154.717 
8.04362e-05      7.16441      153.650 
8.12214e-05      1.90924      135.424 
7.32513e-05      1.83848      157.620 
4.06727e-05     0.832346      144.782 
4.04903e-05      4.37127      164.883 
4.06468e-05      2.59538      151.460 
4.04520e-05      5.75378      159.234 
4.02437e-05      1.21211      142.374 
4.01498e-05      5.17448      162.686 
4.03466e-05      3.38018      159.206 
3.99710e-05      6.45851      154.308 
7.83991e-05      10.3873      154.816 
7.87837e-05      1.92333      135.000 
3.95013e-05     0.788162      144.293 
0.000115548      4.34677      165.069 
7.77859e-05      2.52539      150.593 
3.92192e-05      1.86430      170.740 
7.72492e-05      5.77249      159.305 
3.90900e-05      1.22442      141.633 
7.73250e-05      3.36149      159.085 
0.000111851      5.16856      162.897 
3.86431e-05      6.43183      154.391 
3.86719e-05      1.90924      134.576 
3.86123e-05     0.744043      143.746 
0.000176206      1.86462      157.286 
3.81416e-05      7.18234      153.720 
3.80766e-05      1.19633      141.789 
7.51822e-05      10.3788      154.916 
0.000112273      1.92354      134.157 
3.76838e-05     0.700000      143.130 
3.74526e-05      2.62252      151.285 
3.73840e-05      7.11084      153.795 
3.73699e-05      1.25252      141.483 
3.71068e-05      1.90379      170.933 
3.70031e-05      6.44987      154.468 
7.27379e-05      5.79120      159.374 
3.68884e-05     0.672012      143.471 
3.66629e-05      11.1109      152.328 
0.000107954      4.34166      165.324 
3.66360e-05      2.68477      151.526 
7.13944e-05      1.23693      140.906 
3.62826e-05      1.93794      133.746 
3.61644e-05     0.656049      142.431 
3.58535e-05     0.628013      142.765 
3.57561e-05      6.54795      154.296 
3.57392e-05      1.90966      133.727 
3.56621e-05      3.36868      158.767 
3.55179e-05      7.15556      153.793 
3.55159e-05      1.26507      140.774 
6.67763e-05      11.1202      152.237 
3.52887e-05      2.53527      150.199 
0.000104151      1.92416      133.315 
3.48166e-05      5.80992      159.444 
3.47963e-05      2.50064      149.744 
3.46764e-05      7.12879      153.866 
3.46298e-05     0.612209      141.633 
3.46278e-05      6.37850      154.560 
3.45794e-05      1.98283      171.298 
6.85278e-05      10.3619      155.117 
0.000162188      5.16271      163.109 
3.42421e-05      1.22147      140.315 
0.000123408      11.1295      152.146 
9.91621e-05      4.33663      165.579 
3.40833e-05     0.568507      140.711 
3.38037e-05      1.96306      171.209 
3.38554e-05      1.91050      132.879 
-0.000394842      10.6108      141.812 
6.64870e-05      1.24964      140.194 
6.64134e-05      5.84739      159.582 
3.34572e-05      2.63219      150.903 
3.33562e-05     0.596657      140.440 
3.32334e-05      6.52126      154.378 
9.81620e-05      10.3535      155.217 
9.85055e-05      1.93876      132.910 
0.000217992      3.37923      173.884 
3.31538e-05      3.43185      158.819 
3.29774e-05      7.17351      153.864 
3.27369e-05     0.553173      139.399 
3.25291e-05      3.57687      159.031 
3.23707e-05      2.84429      153.255 
6.31219e-05      4.33170      165.835 
3.22912e-05     0.581378      139.185 
6.27279e-05      1.26254      139.497 
3.21113e-05      6.49458      154.461 
3.19875e-05      3.53955      158.800 
3.19113e-05      7.19147      153.934 
3.17740e-05      5.86614      159.650 
3.17695e-05     0.538145      138.013 
9.34117e-05      10.3452      155.318 
3.16103e-05      2.54527      149.808 
3.16259e-05      1.29074      139.399 
6.16628e-05      2.02237      171.469 
3.11366e-05      3.15398      156.849 
3.09569e-05      6.46792      154.544 
3.09752e-05      1.23434      139.600 
3.09410e-05     0.495177      136.637 
3.08540e-05      5.88490      159.717 
3.07479e-05      2.49359      149.115 
3.06135e-05      7.18270      154.077 
6.02243e-05      3.63593      158.374 
3.03417e-05     0.523450      136.548 
6.00168e-05      5.92243      159.852 
3.01766e-05      1.92666      131.634 
3.01847e-05      3.59138      158.436 
3.00811e-05      1.87243      156.721 
3.00680e-05     0.480833      135.000 
8.83483e-05      10.3368      155.418 
2.98962e-05      2.74707      151.756 
2.98927e-05      6.66483      154.588 
2.99081e-05      1.30384      138.731 
0.000113445      5.15694      163.322 
2.94652e-05     0.509117      135.000 
2.95518e-05      1.84619      157.046 
5.79108e-05      4.30744      166.028 
5.79123e-05      7.17398      154.221 
2.93718e-05      3.01582      155.304 
0.000141386      1.26063      138.215 
2.90703e-05      2.46982      148.241 
2.90055e-05      3.68049      158.314 
8.57417e-05      1.94165      131.241 
2.88732e-05      1.82000      157.380 
2.89069e-05     0.466905      133.264 
2.89097e-05      5.96000      159.984 
2.87707e-05      6.48598      154.620 
2.86422e-05      3.05221      155.618 
8.39556e-05      10.3285      155.519 
2.84808e-05      2.04216      171.552 
2.84758e-05     0.495177      133.363 
2.82436e-05      5.97880      160.050 
2.82519e-05      2.48685      148.483 
2.81582e-05      3.68793      158.025 
5.51573e-05      1.82779      156.801 
5.56159e-05     0.453431      131.424 
2.79731e-05      7.14728      154.295 
2.78082e-05      3.66191      158.199 
2.76571e-05      5.99760      160.115 
2.76294e-05      3.03401      155.462 
2.75372e-05      6.42321      154.552 
2.74458e-05      2.06194      171.634 
2.72280e-05      3.13560      156.705 
2.71666e-05      4.17809      167.560 
2.72338e-05     0.440454      129.472 
