! Center RA: 22 53 57.74794,  Dec: +16 08 53.56093 (2000.0)
! Tentative model.
! Flux (Jy) Radius (mas)  Theta (deg)  Major FWHM (mas)  Axial ratio   Phi (deg) T \
! Freq (Hz)     SpecIndex
 0.0847418    0.0447214      116.565 
 0.0336506    0.0632456      108.435 
-0.0214358     0.121655     -80.5377 
 0.0158962    0.0565685      135.000 
-0.0129704     0.252982      71.5651 
0.00666564     0.493964     -158.629 
-0.00212704     0.577235     -75.9638 
0.000285859    0.0600000      90.0000 
0.000282524     0.487032     -160.821 
-0.00246003     0.582409     -74.0546 
0.000276577     0.512640     -159.444 
0.00105735     0.181108      173.660 
0.00127798    0.0632456      71.5651 
0.000251257     0.200998      174.289 
-0.00157544     0.501597     -85.4261 
0.00565776     0.240000      180.000 
-0.00897980     0.120000     -90.0000 
0.00112711    0.0721110      56.3099 
0.00287358     0.404969     -122.905 
-0.00590482     0.532541     -55.7131 
0.000211661     0.436807     -164.055 
0.000806030    0.0848528      45.0000 
-0.00178388     0.425206     -41.1859 
0.000204925     0.456070     -127.875 
0.00177157     0.412311     -165.964 
-0.00210958     0.500400     -87.7094 
0.00448044     0.260768     -4.39871 
0.000505748     0.468615     -129.806 
0.00173756     0.280713     -175.914 
0.00163626     0.388330     -168.111 
-0.000178540     0.588218     -72.1811 
0.00162782     0.394462     -120.466 
0.000318858     0.100000      36.8699 
-0.000153215     0.500000     -90.0000 
-0.000286250     0.613514     -70.9744 
-0.00194532     0.480000     -90.0000 
0.000276913     0.501597     -156.501 
-0.00320636     0.247386      75.9638 
0.000289731     0.384708     -117.897 
0.00550598     0.282843     -8.13010 
0.000782810     0.481664     -131.634 
0.000279577     0.349285     -113.629 
0.00230026     0.341760     -110.556 
0.000252036     0.116619      30.9638 
-0.000234821     0.620323     -69.2277 
0.00236782     0.417612      163.301 
0.000748241     0.523450     -133.452 
-0.000328467     0.272029      72.8973 
-0.000328369     0.412311     -39.0939 
0.000306987     0.134164      26.5651 
-0.000815282     0.480416     -92.3859 
0.00227696     0.260768     -175.601 
-0.00201354     0.521536     -57.5288 
0.000200959     0.495177     -133.363 
-0.00298244     0.100000     -90.0000 
-9.96716e-05     0.609262     -66.8014 
-0.00138462     0.396989     -40.9144 
0.000178511     0.509902     -154.440 
0.000948306     0.335261     -107.354 
-0.00106615     0.501597     -94.5739 
-0.000175575     0.617414     -65.0952 
0.000340587     0.152315      23.1986 
0.00122537     0.537401     -135.000 
0.000242550     0.310483     -104.931 
0.000491560     0.392938     -165.256 
-0.000280347     0.626099     -63.4349 
0.000283832     0.170880      20.5560 
-0.000146951     0.516140     -54.4623 
0.000142511     0.509117     -135.000 
0.000623871     0.305941     -101.310 
0.000331471     0.518845     -152.447 
-0.000397850     0.808950      8.53077 
-0.00123556     0.504777     -56.3099 
-0.00100306     0.503587     -96.8428 
0.000238021     0.367696     -112.380 
-0.000245407     0.920000      0.00000 
-0.000365585     0.243310      80.5377 
0.00297298     0.240832     -175.236 
-0.00358712     0.101980     -78.6901 
0.00109330     0.282843     -98.1301 
0.000397872     0.189737      18.4349 
-0.000377147     0.635295     -61.8214 
-0.000331786     0.812158      9.92625 
-0.000574789     0.940213     -1.21888 
-0.000382462     0.208806      106.699 
0.00108739      7.62318     -60.2738 
0.000161292     0.501199     -151.390 
0.000205135     0.551725     -136.469 
5.31324e-05      5.88401     -75.6331 
0.00113109     0.398497      162.474 
-0.000301995     0.215407      111.801 
0.00100180      5.86464     -75.5846 
0.00164146     0.286356     -12.0948 
0.000339780     0.208806      16.6992 
0.000452491      6.08612     -72.9942 
5.07303e-05     0.411825     -119.055 
-0.000519987     0.815843      11.3099 
-0.000838093     0.493964     -58.2405 
9.56849e-05     0.528394     -150.524 
0.000136715     0.402492     -116.565 
-0.00116336     0.205913      119.055 
-0.000860626     0.506360     -99.0903 
0.000501210      8.48038     -62.4680 
4.71765e-05     0.538145     -138.013 
0.000848882      6.26779     -71.9698 
0.000136410      5.00120     -62.1027 
-8.91452e-05     0.278568      68.9625 
0.000131635     0.566392     -137.862 
0.000455470     0.215407      21.8014 
0.000169853     0.511077     -149.421 
-0.000507753     0.382099     -42.8789 
0.000443546      5.02824     -62.0079 
-0.000222022     0.644981     -60.2551 
0.000451846      6.36805     -73.9557 
0.000194269      5.01059     -61.9006 
8.26482e-05     0.263059     -98.7462 
4.08243e-05     0.728011     -142.815 
-4.08045e-05     0.304631      66.8014 
0.000224893     0.393954     -113.962 
0.000578742     0.260768     -94.3987 
0.000150874     0.553173     -139.399 
-0.000227870     0.411825      60.9454 
7.83453e-05     0.384708     -152.103 
3.90699e-05     0.744043     -143.746 
-0.000302373     0.920217     -1.24536 
0.00109997     0.228035      15.2551 
0.000179642     0.367151     -150.642 
0.000344641      7.44183     -63.8481 
0.000822452     0.760263     -144.638 
-0.00118295     0.733485     -115.866 
0.000141614      3.93573     -80.3462 
-0.000571935     0.488262     -55.0080 
0.000424663     0.933809     -136.736 
-0.000256184     0.820000      12.6804 
7.03239e-05     0.234094      19.9831 
0.000337439      7.29548     -67.0902 
-0.00129992     0.429418      62.2415 
-0.00169906     0.188680      122.005 
0.000495232      8.67412     -66.9228 
-0.000492956      9.06494     -70.4057 
0.000155961     0.568507     -140.711 
0.000535233     0.386264     -111.251 
0.000216559     0.349857     -149.036 
0.000148400      5.49301     -62.2220 
0.000499347      3.95545     -80.3948 
0.000263743      5.52004     -62.1351 
-5.96198e-05     0.796241      11.5922 
-0.000440721      1.11606     -126.254 
-0.000272903     0.900000      0.00000 
0.000749210      7.28772     -67.2350 
0.000263325      7.94000     -54.9489 
9.03495e-05      6.38727     -74.0053 
0.000451644      7.42388     -63.7801 
0.000203570     0.947629     -135.855 
-3.01526e-05     0.483735     -60.2551 
8.59761e-05      7.53796     -65.8832 
0.000117742     0.709366     -21.5014 
-0.000347352      4.49088     -70.7581 
-0.000202122     0.655134     -58.7363 
0.000204558      3.56976     -82.5963 
0.000490229      9.64556     -59.6067 
0.000240377     0.556058     -142.306 
0.000339674      6.39281     -73.8330 
0.000106479      8.24990     -65.0502 
0.000596565      6.64199     -72.6563 
-0.000543302     0.353836     -42.7094 
0.000581602     0.243310     -99.4623 
0.000215225     0.690797     -22.1094 
8.08619e-05      8.46265     -62.4054 
-0.000484304     0.751532      25.2011 
-0.000301502      6.32961     -69.2744 
0.000256860     0.332866     -147.265 
0.000427392     0.483322      24.4440 
0.000155197      5.04591     -62.1145 
-0.000744713     0.477074     -56.9761 
0.000180406      7.20694     -65.9245 
0.000582591      8.09219     -59.8863 
-0.000565154     0.509902     -101.310 
0.000415762      8.25835     -64.9244 
-7.88542e-05     0.792464      10.1755 
0.000758933     0.379473      161.565 
-0.000275009      4.48433     -70.9994 
0.000805699      5.48372     -62.4069 
0.000172573      7.52981     -66.0221 
0.000317436      7.85124     -68.0089 
-0.000822924      7.77712     -54.1026 
9.79097e-05      6.27401     -71.7961 
2.52657e-05      5.92284     -64.8195 
0.000238058     0.672309     -22.7510 
-0.000208787     0.789177      8.74616 
4.74895e-05      7.87464     -70.8748 
0.000234860      5.10314     -65.9463 
0.000807549     0.266833     -12.9946 
0.000254377      8.47193     -62.2856 
0.000222275      5.93137     -64.6446 
-0.000676572     0.894427     -116.565 
0.000345220      7.21512     -65.7795 
0.000883262     0.379473     -108.435 
0.000164602      5.06360     -62.2204 
4.56500e-05      5.71853     -72.7057 
-0.000481631      8.69506     -60.6638 
-0.000281087     0.769415     -81.0274 
0.000190999     0.316228     -145.305 
-0.000381558      1.12801     -127.073 
0.000145809      6.28681     -72.0262 
-6.62345e-05      9.03549     -58.2097 
0.000210899     0.653911     -23.4287 
-0.000317248      5.74627     -78.9638 
-0.000675247     0.172047      125.538 
0.000183871      7.60581     -60.1991 
-0.000194183      6.34832     -69.3383 
0.000445737     0.933381     -135.000 
0.000142642      5.69944     -72.6460 
-0.000409957      9.02906     -58.0350 
0.000537262     0.247386      14.0362 
0.000140538      7.54965     -58.5417 
0.000255745      8.70037     -66.8533 
0.000201834      6.37360     -73.7829 
2.09336e-05      5.38360     -66.5778 
-0.00136944    0.0824621     -75.9638 
-0.000127103      4.38839     -66.3557 
-0.000413063     0.786384      7.30576 
0.000204388      5.64610     -69.2539 
2.04627e-05      4.98353     -61.9951 
0.000158779      3.59221     -82.3210 
-0.000123244     0.665733     -57.2648 
7.77335e-05      9.68746     -64.1756 
9.66822e-05      7.86811     -71.0124 
1.99531e-05     0.263059     -8.74616 
-0.000112452      6.40765     -83.0081 
0.000335547      4.62017     -67.8762 
0.000187598     0.635610     -24.1455 
0.000250431      6.85589     -65.5284 
0.000264141      7.22875     -60.3141 
0.000723595     0.220907     -174.806 
3.80224e-05      4.81369     -70.5864 
0.000241928     0.300000     -143.130 
-0.000263102      5.06095     -84.7851 
5.53395e-05      5.85969     -75.7740 
-0.000668281     0.640312     -165.530 
7.00495e-05      8.27647     -64.9831 
5.49301e-05      9.05415     -62.0764 
-0.000100330     0.900222     -1.27303 
-0.000239447      7.97140     -59.3814 
0.000175279     0.243310      9.46232 
0.000197117      6.40590     -79.5672 
3.52464e-05      5.40992     -66.4677 
0.000162610      9.67876     -64.2821 
0.000220871      6.29301     -71.8530 
0.000207785      5.89250     -79.8343 
-0.000262174      4.34350     -80.1907 
-0.000228527      7.50405     -75.9638 
1.80112e-05      8.76584     -64.0196 
-0.000294999     0.200000      126.870 
3.47518e-05      5.97679     -71.2619 
0.000281870     0.228035     -105.255 
-0.000199605     0.742428      27.2553 
6.70480e-05      8.60051     -65.4017 
0.000109790      7.75319     -65.9475 
0.000287664      7.68138     -74.4439 
0.000119266      4.80708     -70.8112 
0.000135349      6.07289     -72.7585 
1.75480e-05     0.662118     -25.0169 
-0.000417207      5.76590     -79.0019 
9.03342e-05      5.21018     -59.3003 
0.000195966     0.617414     -24.9048 
0.000132977      5.87908     -75.8219 
-1.72174e-05      6.42996     -82.8529 
-9.58874e-05     0.465188     -64.5367 
0.000237869      7.78545     -76.1779 
0.000164858      6.88116     -71.3544 
9.23751e-05      9.04480     -62.1884 
0.000210189      7.22335     -65.6348 
-7.68701e-05      9.03940     -70.4826 
3.31554e-05      8.77462     -63.9022 
-0.000221825      6.42750     -83.0298 
9.19371e-05      4.99139     -75.8524 
-0.000278121      9.23996     -62.8249 
6.45708e-05      9.07943     -64.2816 
-0.000133252      6.32256     -69.4440 
0.000216546      8.13007     -73.1253 
3.23256e-05     0.501597      23.4986 
7.70517e-05      3.95884     -80.1094 
-0.000215415     0.339411     -45.0000 
8.87323e-05     0.572014     -143.531 
8.65728e-05      5.08130     -62.3255 
1.61530e-05      5.71048     -65.5893 
-0.000102383      7.12146     -71.6668 
6.26144e-05     0.368782      102.529 
-0.000116253      1.16499      11.8887 
0.000156756      7.31686     -64.0653 
0.000143568      5.70060     -65.3231 
-0.000162521     0.420476      64.6538 
4.64043e-05     0.644050     -25.7693 
3.08900e-05      8.78383     -64.0767 
4.58665e-05      9.45095     -61.4282 
-9.99468e-05     0.466476     -59.0362 
-0.000236630      4.02244     -71.7452 
8.57698e-05     0.442719      18.4349 
4.27055e-05      5.60118     -61.8794 
9.88696e-05      8.72663     -66.7842 
0.000126406     0.312410     -140.194 
9.78912e-05      9.06141     -64.2267 
0.000110899      3.94406     -76.8094 
0.000178227     0.388330      101.889 
-0.000123461      6.07276     -60.3955 
7.01280e-05      8.59221     -65.5229 
0.000275166     0.599333     -25.7100 
6.95232e-05      9.60469     -67.6004 
-5.63415e-05     0.676757     -55.8403 
5.59205e-05      8.48125     -62.1659 
-0.000177683      5.19577     -76.8731 
-0.000109242      4.47866     -70.4322 
-0.000190882     0.903549     -117.699 
1.46631e-05      8.78344     -63.7850 
-5.53618e-05      6.51045     -76.8603 
-0.000136388      9.03967     -57.9274 
2.86726e-05      9.44949     -61.6992 
-2.81166e-05      5.56938     -82.3646 
6.86861e-05      8.30094     -59.6044 
-6.81299e-05      6.49098     -76.8201 
4.13444e-05      8.79259     -63.9595 
-0.000107914      8.72229     -60.6136 
4.03764e-05      5.11332     -66.2423 
-9.39911e-05      3.46237     -81.0274 
-0.000106076     0.402492      63.4349 
9.32741e-05      8.32865     -69.4762 
5.41479e-05      9.44002     -61.8061 
6.69926e-05      4.32453     -83.8939 
0.000172471     0.373631     -105.524 
-7.97110e-05     0.456946     -66.8014 
2.65790e-05      5.98936     -71.5045 
0.000119062      5.89647     -61.8704 
9.20012e-05     0.360555      160.560 
-2.64601e-05     0.880227     -1.30195 
-6.59003e-05      10.0285     -62.3106 
3.93870e-05      9.92075     -60.7995 
3.92287e-05      5.65777     -69.5151 
3.94126e-05      9.66075     -64.2307 
-6.49530e-05     0.368782      139.399 
1.33131e-05      7.53923     -58.6713 
1.32470e-05      7.54000     -66.2227 
3.89621e-05      5.32350     -77.6346 
-5.17780e-05      8.27896     -71.2587 
-6.46803e-05      6.18065     -76.9081 
3.87498e-05     0.919348     -134.119 
2.57607e-05      8.79229     -63.6681 
-2.58295e-05      1.34373      4.26789 
-1.30142e-05      8.15421     -55.9981 
2.56357e-05      6.90012     -71.4075 
-1.29365e-05     0.484149     -51.7098 
1.29225e-05     0.436807      15.9454 
-2.55919e-05      7.16517     -62.5766 
-1.28856e-05      4.68342     -79.1699 
2.55075e-05      9.43886     -62.0775 
1.27828e-05      8.60616     -67.3084 
-1.27688e-05      8.17080     -56.0766 
-1.27491e-05      8.40519     -65.6914 
1.26865e-05      7.23162     -65.4905 
