! Center RA: 15 12 50.53293,  Dec: -09 05 59.82981 (2000.0)
! Established model.
! Flux (Jy) Radius (mas)  Theta (deg)  Major FWHM (mas)  Axial ratio   Phi (deg) T \
! Freq (Hz)     SpecIndex
   2.29135      0.00000      0.00000 
  0.190632    0.0200000      0.00000 
  0.163171    0.0282843     -45.0000 
 0.0394206    0.0200000     -90.0000 
0.00419959    0.0632456      18.4349 
0.00413242    0.0282843     -135.000 
0.00800441    0.0824621      14.0362 
0.00400588    0.0447214     -116.565 
 0.0113515    0.0565685     -135.000 
 0.0111808     0.101980      11.3099 
0.00707005    0.0721110     -146.310 
0.00353041     0.121655      9.46232 
0.00680228     0.107703      21.8014 
0.00665176    0.0632456     -108.435 
0.00332500    0.0894427     -153.435 
 0.0212280     0.126491      18.4349 
 0.0121153     0.160000      180.000 
 0.0169490    0.0800000     -90.0000 
 0.0109393     0.161245      7.12502 
 0.0179944     0.180000      180.000 
0.00985292     0.145602      15.9454 
 0.0113077     0.101980     -78.6901 
 0.0170570     0.181108      6.34019 
 0.0186990     0.200000      180.000 
0.00225014    0.0721110      56.3099 
 0.0396326    0.0800000      90.0000 
 0.0384273     0.107703     -68.1986 
 0.0287860     0.200998      5.71059 
 0.0224078     0.220000      180.000 
 0.0251923     0.240000      180.000 
 0.0169222     0.220907      5.19443 
 0.0133315     0.134164     -63.4349 
0.00661417     0.101980      101.310 
 0.0102550    0.0824621      104.036 
 0.0226164     0.439090     -30.0686 
0.00466240     0.107703      111.801 
0.00663700    0.0894427      116.565 
0.000801865      1.04785     -23.6294 
0.00409428      1.05603     -24.6236 
0.00260740      3.35219     -37.4852 
0.000931782      1.06621     -23.1986 
0.000908592      3.08603     -38.9498 
0.000285656     0.891964     -47.7263 
0.00837282      1.01548     -32.1250 
 0.0116314     0.456508     -28.8108 
0.00644362     0.878635     -48.6914 
0.00295847      2.74416     -43.8188 
0.000301788     0.128062     -51.3402 
0.00242270      2.90682     -34.3461 
0.00158923     0.116619     -59.0362 
0.00251893      3.07350     -38.6598 
0.00209009     0.220000      0.00000 
0.00310400      1.08462     -22.7824 
0.00284783      2.72976     -44.1095 
0.00164484      2.69236     -35.9335 
0.00265031      2.47588     -46.6366 
0.00546066      2.98402     -45.2715 
0.000722097      2.70858     -35.6852 
0.00260756      3.10645     -33.1785 
0.000176000      3.06105     -38.3675 
0.000481336      3.30829     -37.6319 
0.00180773      1.21803     -29.5115 
0.000154742      1.11946     -41.3785 
0.00147565     0.144222     -56.3099 
0.000684890     0.699714     -59.0362 
0.000293777      1.13455     -40.7108 
0.00116248     0.220907      174.806 
0.00251873      3.32415     -37.4215 
0.00255362      1.07703     -21.8014 
0.00131331      1.16276     -40.8151 
0.00305224      2.46219     -46.9749 
0.000697597     0.240000      0.00000 
0.000452136      2.89033     -34.5698 
0.000937060     0.662420     -61.1134 
0.000111604      3.03295     -38.3058 
0.000508879     0.549181     -10.4915 
0.000292473      2.71544     -44.4032 
0.000466491     0.240832      175.236 
0.000686037      1.17796     -40.1792 
-9.68111e-05      2.51213     -49.8440 
-0.00264218      2.52507     -49.4971 
-0.00169406      3.21925     -40.7171 
0.000898142      2.74372     -44.4093 
-0.00127858      3.20412     -40.9504 
0.000926916     0.672309     -59.6209 
0.000433089      1.24531     -29.8590 
0.000417606      2.72947     -44.7031 
0.000346979      1.47567     -32.8285 
0.000138988     0.472017     -53.6156 
0.000137503      3.13413     -33.2844 
6.77704e-05     0.865563     -49.6859 
