! Center RA: 22 32 36.40891,  Dec: +11 43 50.90394 (2000.0)
! Tentative model.
! Flux (Jy) Radius (mas)  Theta (deg)  Major FWHM (mas)  Axial ratio   Phi (deg) T \
! Freq (Hz)     SpecIndex
 0.0206271    0.0447214      153.435 
0.00274330    0.0565685      135.000 
0.00551485    0.0721110      146.310 
0.00203127    0.0282843      135.000 
0.000218333     0.144222      146.310 
0.000624491    0.0200000      0.00000 
0.000393508     0.156205      140.194 
0.000275547     0.172047      144.462 
0.000591798    0.0824621     -14.0362 
0.000757398     0.169706      135.000 
0.000146492     0.126491     -18.4349 
0.000222865      0.00000      0.00000 
6.94626e-05     0.145602     -15.9454 
0.000741675     0.189737     -18.4349 
-0.000929889      1.50013      137.161 
0.000569050     0.172047      125.538 
6.11952e-05    0.0632456      161.565 
0.000238817    0.0200000      180.000 
0.000102148    0.0824621      165.964 
-0.00120037      1.51486      137.675 
0.000580170     0.178885      116.565 
0.000448711    0.0400000      180.000 
4.65034e-05     0.215407     -21.8014 
0.00106061     0.234094     -19.9831 
-0.000896960      2.01534      130.170 
0.000935906     0.340000      90.0000 
0.000406434     0.501597      113.499 
3.59053e-05    0.0600000      180.000 
3.44188e-05     0.243310      170.538 
0.000630900     0.170880      110.556 
-0.000401105      2.00250      124.007 
0.000325263      2.82631      157.973 
-0.000272735      1.45245      128.290 
3.09593e-05     0.263059      171.254 
-5.55139e-05      1.43680      128.784 
-5.92596e-05      1.50147      138.240 
2.99296e-05     0.509902      115.560 
0.000397214      9.64997      150.034 
-0.000133060      1.50864      141.459 
0.000331193      2.61725      136.548 
-0.000628440     0.428019     -37.4054 
2.73055e-05     0.282843      171.870 
-9.77257e-05      1.51208      142.524 
0.000603151     0.520000      112.620 
5.22847e-05      2.69436      151.152 
-0.000188077      2.02830      130.601 
0.000125094      2.00639      156.501 
0.000106135     0.234094     -109.983 
2.52358e-05      2.84485      158.124 
4.81669e-05     0.302655      172.405 
-0.000301606      1.99730      124.804 
0.000419977      2.66721      151.321 
0.000236965     0.247386     -104.036 
-2.39665e-05      4.05887      139.797 
-0.000153420      2.03066      129.806 
0.000477310      2.02475      156.727 
-0.000166672      4.07416      139.978 
-0.000182206      1.49305      140.981 
-0.000100906      2.01375      124.479 
-0.000167422      1.44014      127.666 
0.000466492     0.260000     -22.6199 
-0.000261166     0.444072      7.76517 
8.06787e-05      9.62538      149.812 
2.09053e-05     0.322490      172.875 
-0.000206098      2.20925      153.667 
0.000143940      2.83387      157.598 
-0.000336364      4.13903      167.441 
-2.01871e-05      1.51380      136.606 
-0.000478055      1.18828      136.364 
0.000173146      6.17754      149.450 
0.000141592      2.63310      141.476 
-8.28825e-05      1.56474      144.888 
-0.000132062      1.82702      138.106 
0.000174086      8.84823      142.716 
-0.000493187      11.1673      147.135 
1.88253e-05      6.80462      157.354 
-3.67681e-05      2.04353      130.236 
5.40947e-05      9.58369      149.528 
0.000102880      11.7056      147.206 
-0.000143239      1.90032      139.268 
8.51885e-05      6.82308      157.419 
-0.000281877      5.92638      144.755 
0.000101284     0.243310     -99.4623 
-1.77103e-05      2.03027      124.160 
0.000147694      4.52866      160.925 
-1.74085e-05      2.04137      131.028 
-0.000390521      3.13904      167.115 
4.83126e-05     0.342345      173.290 
-1.69625e-05      1.96987      131.295 
1.69389e-05      9.66731      150.093 
-0.000393166      9.57413      155.041 
-0.000126230      9.40793      151.147 
1.67404e-05      9.56646      149.468 
0.000189290      2.34955      168.212 
-1.65934e-05      4.08950      140.159 
-4.82700e-05      1.17388      135.690 
-9.17389e-05      1.94165      131.241 
9.25607e-05      9.55944      149.303 
-1.63903e-05      2.22720      153.895 
-0.000298441      2.45967      153.435 
4.70630e-05      2.18961      163.551 
-0.000269632      2.20045      154.134 
8.63029e-05      7.56415      148.075 
-1.58626e-05      10.6481      143.324 
-4.46120e-05      1.58644      146.310 
0.000129236     0.300666     -86.1859 
0.000125382      11.6780      147.235 
7.08560e-05     0.512640      110.556 
-0.000260230     0.424264      8.13010 
0.000154043     0.164924      104.036 
-0.000215919      1.26696      168.158 
-0.000317935      10.6361      143.410 
-1.54541e-05      2.04157      124.624 
0.000259089      10.6975      144.973 
5.77665e-05      6.81542      157.574 
-0.000157325      2.00420      126.069 
8.46072e-05     0.620000      90.0000 
0.000215173      8.86415      142.794 
0.000109777     0.278568     -21.0375 
-6.53133e-05      1.88521      138.871 
9.60220e-05      4.51774      148.210 
4.32872e-05      4.88532      159.636 
4.33509e-05      2.84155      157.225 
0.000150665      3.82047      154.911 
0.000141783      2.20880      163.698 
8.45469e-05      11.1129      151.867 
0.000400483     0.252982     -18.4349 
5.49558e-05      6.47596      153.989 
-1.47060e-05      2.02425      127.776 
5.53521e-05     0.362215      173.660 
0.000107809      4.40985      163.127 
0.000180994      4.61775      151.548 
-0.000165191      3.14356      166.759 
-0.000125012      2.05806      124.308 
-0.000108458      9.39042      151.088 
5.56381e-05      2.19536      163.051 
-0.000228215      1.08904      172.614 
1.43865e-05      9.48911      147.918 
-0.000311516     0.412311     -39.0939 
0.000146735      2.34196      172.147 
2.73767e-05      9.65735      150.196 
7.43249e-05      6.15015      149.516 
-0.000143963      9.48991      153.597 
5.26331e-05      9.54224      149.242 
-0.000203212      5.78695      153.524 
-7.72084e-05      1.95489      131.682 
6.89253e-05      9.47217      147.854 
-1.36711e-05      1.44402      126.552 
6.29010e-05      3.74144      151.243 
1.35334e-05    0.0400000      0.00000 
-3.61294e-05      4.10488      140.337 
-0.000169468     0.696563      140.826 
-7.33000e-05      1.52971      138.180 
3.48490e-05      4.91105      159.499 
-0.000220732      1.55769      164.358 
-5.10917e-05     0.822192      138.945 
4.99124e-05     0.737564      167.471 
1.32300e-05      2.62069      141.818 
-8.82311e-05      2.30868      144.520 
0.000333333      11.1306      151.915 
-0.000112572      1.46014      126.085 
3.75352e-05      2.84935      156.854 
-4.79304e-05      1.58114      145.305 
9.56056e-05      3.70135      144.678 
8.47972e-05      2.79836      173.434 
0.000109625      2.68477      151.526 
6.17546e-05      2.53748      159.708 
1.28844e-05     0.228035     -105.255 
4.77367e-05      6.83392      157.638 
7.29454e-05      7.62871      145.143 
2.40743e-05      2.04313      156.949 
0.000222737     0.302655     -82.4054 
8.45126e-05      4.40990      165.018 
-1.27205e-05      1.60312      146.706 
0.000325483     0.980816      163.413 
0.000183599      8.13941      153.120 
-2.46535e-05      9.36325      151.136 
9.44092e-05      4.93680      159.362 
0.000137337      11.5354      148.542 
0.000185692      5.20834      151.565 
-9.95252e-05     0.835464      137.911 
9.05770e-05     0.161245      97.1250 
0.000123992     0.640000      90.0000 
0.000205192      8.92002      152.056 
-0.000133280      8.39412      140.317 
3.48344e-05      9.64742      150.299 
0.000146558      4.42900      163.202 
-0.000121815      6.60076      142.262 
-1.20215e-05      9.99250      149.843 
7.37918e-05      7.51963      148.043 
5.71614e-05      4.97691      158.797 
3.42251e-05     0.382099      173.991 
6.20368e-05      4.54528      148.128 
-1.19292e-05      1.91343      131.186 
-0.000321327      2.32499      144.806 
-0.000311878      9.96516      149.884 
-5.72900e-05      9.30892      151.232 
-0.000114040      10.9499      149.970 
3.40390e-05      6.34303      148.014 
-1.17175e-05      3.33065      148.505 
6.66000e-05      9.53203      149.346 
-0.000142271      1.92666      131.634 
7.91013e-05     0.215407     -111.801 
0.000109678      2.51873      159.550 
-4.44630e-05      3.34772      148.684 
9.81045e-05      6.45799      153.911 
9.27662e-05      2.85727      156.485 
-3.27488e-05     0.820731      136.975 
-0.000127703     0.529528     -10.8855 
8.88260e-05      7.07819      146.759 
0.000136142      3.79273      132.863 
3.18779e-05      9.23385      149.547 
-0.000155916      10.3651      143.948 
4.35105e-05      7.60087      145.181 
2.22713e-05      7.17785      146.133 
-4.20208e-05      1.50572      140.389 
0.000137000      4.64487      151.449 
6.94929e-05      3.72392      151.095 
1.11512e-05      9.25110      149.610 
-0.000204838      5.13455      164.177 
2.19107e-05      4.40477      165.270 
-4.93584e-05      5.93795      144.597 
5.15293e-05      9.04524      149.579 
-8.95021e-05      9.28177      151.281 
-0.000162890      3.99344      159.478 
4.14433e-05      9.03513      149.689 
7.70691e-05      5.31932      141.105 
2.10708e-05      4.98418      158.583 
2.87042e-05      11.6611      147.182 
1.06067e-05      5.94431      149.466 
8.52169e-05      7.19447      146.222 
-7.85352e-05      5.96879      155.238 
4.99174e-05      4.42922      165.085 
5.80680e-05      11.1370      143.912 
-6.54997e-05      1.59762      145.713 
-3.04445e-05      3.37520      148.570 
1.99505e-05     0.757100      167.800 
4.70702e-05     0.181108      96.3402 
8.62873e-05      5.88248      149.337 
0.000122838      10.9320      144.682 
-1.03562e-05      3.29278      148.917 
-6.50732e-05      4.12029      140.515 
-8.84331e-05      5.76906      153.435 
2.86927e-05      4.42412      165.336 
0.000102483      9.51483      149.284 
5.71902e-05      6.36000      148.109 
-2.03348e-05      1.99249      125.605 
2.94389e-05      6.85242      157.702 
3.00673e-05      7.58446      145.095 
-2.00218e-05      3.26533      149.036 
8.41921e-05      4.25027      138.434 
1.01772e-05     0.424264      171.870 
-4.67674e-05      3.37668      141.976 
2.86513e-05      3.80237      154.783 
-3.75664e-05      9.47200      153.543 
-0.000120723      8.93391      151.082 
-3.73017e-05      10.0952      155.415 
1.00151e-05      9.62015      150.344 
-0.000109693      1.10887      172.747 
-0.000146208      9.20369      153.268 
-9.86766e-06      1.61988      147.095 
8.22246e-05      5.01011      158.453 
-7.46898e-05      2.82028      168.132 
5.70336e-05      3.70648      164.989 
6.41905e-05      8.13039      153.246 
-2.83462e-05      8.61390      152.781 
-9.73470e-06      2.09380      133.452 
1.85271e-05     0.401995      174.289 
-5.44556e-05      9.87467      153.798 
5.48684e-05      2.36913      168.311 
-5.43242e-05      1.54467      138.675 
-8.15830e-05      3.25509      149.338 
7.18507e-05      7.61231      145.057 
-4.57180e-05     0.404475      8.53077 
3.61295e-05      9.59287      150.388 
-4.55018e-05      3.40270      148.459 
7.22770e-05      3.80741      132.658 
1.89445e-05      9.05539      149.470 
-2.70537e-05      4.11951      167.381 
7.15568e-05      5.86941      151.950 
7.13553e-05      9.17893      152.207 
2.72489e-05      9.05240      149.753 
-3.55071e-05      2.10761      133.847 
-2.71281e-05      1.46479      124.992 
-5.30944e-05      5.29694      154.983 
-3.52183e-05      3.00466      168.092 
-9.27692e-06      8.64083      152.723 
-3.60374e-05      1.98595      124.330 
-7.07707e-05      5.75117      153.346 
-3.53881e-05      3.72005      136.089 
-9.19391e-06      10.6797      153.051 
-9.19656e-06      9.47014      151.216 
3.57212e-05      10.6697      144.999 
-3.52902e-05     0.681175      139.764 
3.50259e-05      9.06556      149.361 
2.67122e-05      4.14386      135.587 
6.13587e-05      3.72070      165.366 
-1.77649e-05      1.84196      138.521 
-5.24794e-05      4.93323      165.682 
2.62242e-05      6.87092      157.765 
-3.51465e-05      1.56320      163.652 
-3.48661e-05      7.58889      144.006 
1.76889e-05     0.160000      90.0000 
2.60917e-05      7.54719      147.995 
1.76833e-05      4.44855      165.152 
-3.47148e-05      5.98695      155.318 
5.18587e-05      4.01059      128.928 
-1.74378e-05      8.59612      152.720 
8.80896e-06      2.83894      156.324 
-8.78073e-06      2.21847      154.359 
1.73317e-05      2.70237      151.728 
1.71409e-05      1.82000      112.620 
-8.70455e-06      9.53237      151.284 
-8.69317e-06      10.6619      153.002 
-1.71408e-05      10.4633      145.277 
8.64240e-06      2.64560      141.137 
1.70527e-05      11.1532      143.973 
8.60648e-06      5.83788      149.306 
-1.70415e-05      1.88521      131.129 
1.70083e-05      4.44347      165.401 
-8.58328e-06      1.96947      124.658 
-8.56451e-06      2.80071      168.048 
-8.54110e-06      7.60592      151.750 
8.53323e-06      9.04234      149.862 
8.50970e-06      2.84703      155.956 
8.49334e-06      10.6533      144.937 
-8.49932e-06     0.384187     -38.6598 
8.48374e-06     0.733485      168.996 
8.45525e-06     0.228035     -15.2551 
-8.44121e-06      9.25462      151.330 
8.42933e-06      3.72924      144.605 
-8.42087e-06      10.9672      150.022 
8.41526e-06      7.95316      142.150 
-8.40471e-06      3.18522      172.786 
