! Center RA: 12 56 11.16657,  Dec: -05 47 21.52481 (2000.0)
! Tentative model.
! Flux (Jy) Radius (mas)  Theta (deg)  Major FWHM (mas)  Axial ratio   Phi (deg) T \
! Freq (Hz)     SpecIndex
  0.236408      0.00000      0.00000 
 0.0598767    0.0200000     -90.0000 
 0.0654075    0.0282843     -135.000 
 0.0502456    0.0200000      0.00000 
 0.0547620     0.161245     -150.255 
0.00270013     0.305287     -148.392 
 0.0152044     0.332866     -147.265 
 0.0188089     0.377359     -147.995 
 0.0418476    0.0632456      18.4349 
 0.0244648     0.660303     -144.866 
0.00338530     0.832346     -144.782 
 0.0187641     0.860233     -144.462 
0.00820350     0.632456     -145.305 
 0.0193869     0.421900     -148.570 
0.00802980     0.205913     -150.945 
 0.0143061     0.876584     -145.222 
 0.0177370     0.107703      21.8014 
0.00716404     0.644050     -143.842 
0.00815382    0.0824621      14.0362 
0.00466694     0.616117     -144.246 
0.00362012     0.904434     -144.904 
0.000543071     0.809938     -147.095 
0.00225445      1.50572     -140.389 
0.00257761      4.44063     -135.000 
0.00151291      1.52118     -140.870 
0.00103400     0.932309     -144.605 
0.00453631      1.54932     -140.763 
0.00756640      4.42651     -134.817 
0.00214845     0.826801     -147.848 
0.000961412     0.976524     -145.008 
0.00120669      4.46892     -135.000 
0.00282330      1.02078     -145.376 
0.00238772      1.28701     -147.051 
0.000424769     0.439090     -149.931 
0.00282452     0.483735     -150.255 
0.00108202      1.26254     -139.497 
0.00226721     0.600000     -143.130 
0.00250364      1.30384     -147.529 
0.000645019      1.03730     -146.004 
0.000643468      4.53965     -134.822 
0.00273155     0.843801     -148.570 
0.00100809      1.29074     -139.399 
-0.00943587     0.247386      165.964 
0.00120304      4.37013     -134.444 
0.00320981      4.43301     -131.891 
0.000581797      1.08167     -146.310 
0.00219307     0.134164     -153.435 
0.00274493      4.35615     -134.256 
0.000994510      4.56793     -134.823 
0.000547978      1.27624     -147.804 
0.00154110     0.584123     -141.953 
-0.00376930     0.200000     -36.8699 
0.000502253      1.47757     -140.492 
0.00217221      1.29321     -148.276 
0.00234737      1.31894     -139.304 
0.000503375      1.09836     -146.889 
0.00784997    0.0894427     -153.435 
0.00222728      2.08634     -150.732 
0.000250113      1.70857     -141.654 
0.000892700     0.511077     -149.421 
0.00781760    0.0721110     -146.310 
0.00190393     0.568507     -140.711 
-0.0112228     0.184391     -40.6013 
0.000435470      1.72430     -142.067 
-0.0137230     0.228035      164.745 
0.00298903      4.44639     -132.083 
0.00633825     0.871321     -148.134 
0.000621154      1.11517     -147.450 
0.00251470      1.31027     -148.736 
0.000609162      4.34221     -134.067 
0.000915719      1.43402     -140.092 
0.000395836      4.46126     -131.911 
0.00199112      4.30005     -133.869 
0.000657928     0.493964     -148.241 
0.00232883      2.06891     -150.461 
0.000359170      4.58214     -134.646 
0.000358228      1.76816     -142.352 
0.00223810     0.556058     -142.306 
0.000776242      1.13208     -147.995 
0.000460233     0.553173     -139.399 
0.000309735      4.45982     -132.274 
0.000418417      1.78404     -142.745 
0.000151419      4.59622     -134.824 
0.000147234      4.57056     -136.950 
0.000429077      1.32740     -149.184 
0.00158078      4.47464     -132.101 
0.000552088      4.58519     -137.121 
0.000745796      1.14909     -148.523 
0.000532992      4.79471     -135.845 
0.000395784      4.28621     -133.677 
0.00118524      2.04167     -150.673 
0.00148908      1.30000     -149.490 
0.00139870     0.540370     -141.009 
0.00103043      2.19244     -144.280 
0.000617089      4.59987     -137.291 
0.000126858     0.449444     -147.724 
0.000240940      4.69936     -132.585 
0.000455133      4.27242     -133.483 
0.00150684      4.80866     -135.674 
0.00195115      3.30478     -141.882 
0.000439677      3.62745     -131.424 
0.000904600     0.538145     -138.013 
0.000746999      4.61459     -137.459 
0.000385541      4.18057     -131.315 
-0.00545444     0.169706     -45.0000 
0.000772867      4.01886     -132.983 
0.00226145     0.888369     -148.815 
0.00244660      3.58603     -131.156 
-0.00652511     0.208806      163.301 
0.00157908      5.10690     -136.428 
0.000207999      4.16740     -131.108 
0.000919837      4.71292     -132.764 
0.000104867      2.01604     -143.471 
0.00226446      3.04532     -146.519 
0.000290687      1.16619     -149.036 
0.000473268      2.06010     -143.686 
-0.00174953     0.470744     -167.735 
-0.00339910     0.734302     -119.358 
0.00190631      1.21078     -149.199 
0.00109788      4.62934     -137.626 
9.38815e-05     0.432666     -146.310 
0.00323695     0.523450     -136.548 
0.000745027     0.388330     -145.491 
0.000485983      4.48807     -132.291 
8.68899e-05      4.25869     -133.287 
0.000485065      2.07625     -144.013 
0.000983718      3.66808     -142.755 
0.000463512      2.02425     -150.396 
-0.000694026      1.47187     -132.797 
0.000229484      1.39054     -139.667 
0.000227414      4.16557     -131.496 
-0.00213985     0.490306     -101.768 
0.000549001      4.03252     -133.191 
-0.00172019     0.817068     -158.459 
0.000259291      2.23786     -151.144 
-0.000574597      2.09380     -133.452 
7.55865e-05      2.20871     -144.583 
0.00100238      4.44504     -137.553 
0.00115371      1.27264     -149.808 
-0.000668438      1.14140     -168.887 
-0.00184663     0.553173      167.471 
0.000269067      1.77200     -143.259 
0.000329393      2.09246     -144.335 
0.000776161      4.47330     -132.463 
-0.00136690      1.48553     -133.363 
0.000495887      4.64414     -137.793 
0.000450632      4.55495     -124.807 
0.000244770      4.15235     -131.290 
0.000317035      2.00689     -150.113 
-0.00105581      1.97474     -123.851 
6.41193e-05      1.27562     -138.814 
-0.00134459     0.494773     -165.964 
0.000804955      3.32054     -142.095 
-0.000347817      1.32439     -165.124 
0.000290130      1.41873     -139.574 
0.00103912      2.22791     -130.267 
0.00127970      4.56640     -125.013 
0.000223428      2.10874     -144.652 
0.000220963      1.78807     -143.643 
0.000259356      5.12141     -136.582 
0.00171964     0.509117     -135.000 
0.000166483      1.98957     -149.826 
-0.00169737     0.156205     -50.1944 
0.000103440      4.07946     -140.770 
0.000493161      3.47753     -130.101 
-0.00130329     0.798499     -157.932 
-0.00202273     0.189737      161.565 
0.000527649     0.344093     -144.462 
0.000200196      4.79437     -135.507 
0.000419590      5.24187     -140.418 
0.000103243      2.11291     -139.222 
5.24350e-05      4.54335     -137.319 
5.20489e-05      4.12412     -131.264 
0.000325145      4.70208     -138.103 
0.000148854      1.97231     -149.534 
0.000145035      3.47287     -147.225 
0.000195578      1.77629     -144.162 
0.000180700     0.372022     -143.746 
0.000326382      4.47330     -137.537 
0.000184827      2.25539     -151.390 
-0.000191578      1.32966     -164.291 
0.000396889      3.02866     -146.310 
0.000313559      4.11096     -131.055 
-0.000870696      1.49933     -133.919 
0.000267440      2.12509     -144.964 
-9.62898e-05      2.82857     -134.427 
-0.000600773     0.744312     -120.700 
0.000209983      4.51509     -137.334 
-0.000136104      2.87089     -134.718 
0.000214790      4.48683     -132.652 
0.000220923      1.95510     -149.237 
0.000135667      1.79254     -144.537 
-0.000786351      1.68190     -154.654 
-0.000739931     0.470744     -102.265 
4.50677e-05      1.19365     -148.707 
0.000572861      2.24089     -130.657 
-0.000490947      1.12801     -127.073 
8.68054e-05      4.80841     -135.337 
-4.43482e-05      2.10761     -133.847 
0.000206485      4.56640     -144.987 
-0.000158954      2.85685     -134.433 
0.000760538     0.509902     -131.820 
0.000124573      3.07903     -151.271 
-0.000281144      3.98020     -127.446 
8.43749e-05      4.96971     -132.227 
-0.000239277      4.26671     -128.911 
-0.000163761      2.81460     -134.136 
4.22133e-05      4.09497     -140.947 
8.00228e-05      1.80887     -144.904 
0.000200917      1.93794     -148.935 
0.000199347      4.48683     -137.348 
0.000274021      4.98454     -132.073 
8.09424e-05      2.44295     -140.315 
0.000155422      4.08274     -131.028 
0.000116819      4.58279     -145.131 
0.000115443      4.74523     -138.246 
7.82647e-05     0.523450     -133.452 
3.93197e-05      2.09724     -145.098 
7.77016e-05      2.86782     -146.088 
7.68372e-05      5.22915     -140.587 
7.62101e-05      1.92083     -148.627 
-0.000151838      4.74788     -140.812 
7.57689e-05      3.61425     -131.186 
7.61607e-05      2.11367     -145.408 
-0.000113860     0.519230     -164.358 
-7.55413e-05      2.26504     -119.055 
-3.79232e-05      2.71662     -133.210 
3.76788e-05      4.79420     -135.169 
-7.49127e-05      1.51327     -134.465 
3.74367e-05      2.66120     -141.407 
3.73125e-05      1.24740     -138.900 
3.71380e-05      1.86387     -146.821 
